[ Experiment Parameters ]
Experiment Description= MnO various survey tests 
Number_of_Regions_in_Experiment= 7 

Original_File_name= c:\alexesca\data\alex\survey01.xps 
Instrument= ESCA-West
Date= 07-31-1997
Time=  12:51:50

[ Region 1 Parameters ]
Region_Description = survey                             
BEcenter(eV) = 500.000000
BEwidth(eV) = 1000.000000
BEstep(eV) = 0.898438
Dwell_Time(sec) = 1.500000
N_o_scans = 1  
N_o_Channels = 1113  
Excitation_Energy = 0.000000  
Scan_mode = 0  (DITHERED)

[ Region 2 Parameters ]
Region_Description = survey   0-500                       
BEcenter(eV) = 250.000000
BEwidth(eV) = 500.000000
BEstep(eV) = 0.898438
Dwell_Time(sec) = 1.500000
N_o_scans = 1  
N_o_Channels = 543  
Excitation_Energy = -680564733843230621613262695881913663488.000000  
Scan_mode = 0  (DITHERED)

[ Region 3 Parameters ]
Region_Description = survey   500-1000                          
BEcenter(eV) = 750.000000
BEwidth(eV) = 500.000000
BEstep(eV) = 0.898438
Dwell_Time(sec) = 1.500000
N_o_scans = 1  
N_o_Channels = 543  
Excitation_Energy = -680564733843230923844717599539207340032.000000  
Scan_mode = 0  (DITHERED)

[ Region 4 Parameters ]
Region_Description = survey   0-250                       
BEcenter(eV) = 125.000000
BEwidth(eV) = 250.000000
BEstep(eV) = 0.898438
Dwell_Time(sec) = 1.500000
N_o_scans = 1  
N_o_Channels = 272  
Excitation_Energy = -686185425614892760012547166565209997312.000000  
Scan_mode = 0  (DITHERED)

[ Region 5 Parameters ]
Region_Description = survey  250 -500                      
BEcenter(eV) = 375.000000
BEwidth(eV) = 250.000000
BEstep(eV) = 0.898438
Dwell_Time(sec) = 1.500000
N_o_scans = 1  
N_o_Channels = 272  
Excitation_Energy = -680564733843230621613262695881913663488.000000  
Scan_mode = 0  (DITHERED)

[ Region 6 Parameters ]
Region_Description = survey  500-750                      
BEcenter(eV) = 625.000000
BEwidth(eV) = 250.000000
BEstep(eV) = 0.898438
Dwell_Time(sec) = 1.500000
N_o_scans = 1  
N_o_Channels = 272  
Excitation_Energy = -680564733843230621613262695881913663488.000000  
Scan_mode = 0  (DITHERED)

[ Region 7 Parameters ]
Region_Description = survey  750-1000                   
BEcenter(eV) = 875.000000
BEwidth(eV) = 250.000000
BEstep(eV) = 0.898438
Dwell_Time(sec) = 1.500000
N_o_scans = 1  
N_o_Channels = 272  
Excitation_Energy = -680564733843230621613262695881913663488.000000  
Scan_mode = 0  (DITHERED)

[ Region 1 Curve ]
BEcenter= 500.000 
BEwidth= -998.828
Excitation= 1486.600
Time_p_channel= 15.360  
Size= 1113
999.414  4.73400000e+03 
998.516  4.53100000e+03 
997.618  4.78300000e+03 
996.719  4.73100000e+03 
995.821  4.62900000e+03 
994.923  4.62200000e+03 
994.025  4.64400000e+03 
993.126  4.66200000e+03 
992.228  4.55400000e+03 
991.330  4.68600000e+03 
990.432  4.60200000e+03 
989.534  4.69900000e+03 
988.635  4.50200000e+03 
987.737  4.44600000e+03 
986.839  4.51900000e+03 
985.941  4.61200000e+03 
985.042  4.49900000e+03 
984.144  4.52300000e+03 
983.246  4.57700000e+03 
982.348  4.56300000e+03 
981.450  4.49200000e+03 
980.551  4.41000000e+03 
979.653  4.58700000e+03 
978.755  4.45400000e+03 
977.857  4.44700000e+03 
976.958  4.42600000e+03 
976.060  4.51300000e+03 
975.162  4.34300000e+03 
974.264  4.34800000e+03 
973.365  4.18900000e+03 
972.467  4.38400000e+03 
971.569  4.40200000e+03 
970.671  4.23500000e+03 
969.773  4.24000000e+03 
968.874  4.18500000e+03 
967.976  4.23000000e+03 
967.078  4.09400000e+03 
966.180  4.15100000e+03 
965.281  4.20200000e+03 
964.383  4.18600000e+03 
963.485  4.05000000e+03 
962.587  4.14700000e+03 
961.689  4.14500000e+03 
960.790  4.20100000e+03 
959.892  4.15600000e+03 
958.994  4.17800000e+03 
958.096  4.22300000e+03 
957.197  4.12800000e+03 
956.299  4.31100000e+03 
955.401  4.10000000e+03 
954.503  4.21700000e+03 
953.604  4.09600000e+03 
952.706  4.01400000e+03 
951.808  4.02400000e+03 
950.910  3.89000000e+03 
950.012  3.75600000e+03 
949.113  3.78400000e+03 
948.215  3.70400000e+03 
947.317  3.67300000e+03 
946.419  3.74000000e+03 
945.520  3.61800000e+03 
944.622  3.52500000e+03 
943.724  3.54700000e+03 
942.826  3.58300000e+03 
941.928  3.49000000e+03 
941.029  3.57900000e+03 
940.131  3.53800000e+03 
939.233  3.60000000e+03 
938.335  3.50300000e+03 
937.436  3.55900000e+03 
936.538  3.46600000e+03 
935.640  3.47600000e+03 
934.742  3.45800000e+03 
933.844  3.51300000e+03 
932.945  3.38800000e+03 
932.047  3.46500000e+03 
931.149  3.43400000e+03 
930.251  3.49400000e+03 
929.352  3.41900000e+03 
928.454  3.40300000e+03 
927.556  3.45400000e+03 
926.658  3.48700000e+03 
925.759  3.36400000e+03 
924.861  3.39800000e+03 
923.963  3.31600000e+03 
923.065  3.26100000e+03 
922.167  3.46100000e+03 
921.268  3.19800000e+03 
920.370  3.36000000e+03 
919.472  3.31100000e+03 
918.574  3.24300000e+03 
917.675  3.35000000e+03 
916.777  3.32200000e+03 
915.879  3.27700000e+03 
914.981  3.28500000e+03 
914.083  3.27600000e+03 
913.184  3.21100000e+03 
912.286  3.23900000e+03 
911.388  3.25700000e+03 
910.490  3.23400000e+03 
909.591  3.19000000e+03 
908.693  3.16700000e+03 
907.795  3.19900000e+03 
906.897  3.17300000e+03 
905.998  3.20400000e+03 
905.100  3.19200000e+03 
904.202  3.14900000e+03 
903.304  3.15000000e+03 
902.406  3.09700000e+03 
901.507  3.09500000e+03 
900.609  3.12100000e+03 
899.711  3.12100000e+03 
898.813  3.18900000e+03 
897.914  3.04700000e+03 
897.016  3.02300000e+03 
896.118  3.14000000e+03 
895.220  3.07700000e+03 
894.322  3.09800000e+03 
893.423  3.02900000e+03 
892.525  3.05200000e+03 
891.627  3.09400000e+03 
890.729  2.90500000e+03 
889.830  3.05800000e+03 
888.932  3.11200000e+03 
888.034  3.05200000e+03 
887.136  2.93500000e+03 
886.237  3.08800000e+03 
885.339  3.12000000e+03 
884.441  2.96400000e+03 
883.543  3.15500000e+03 
882.645  2.98800000e+03 
881.746  3.05600000e+03 
880.848  3.02500000e+03 
879.950  3.04400000e+03 
879.052  2.92600000e+03 
878.153  3.03300000e+03 
877.255  2.91400000e+03 
876.357  2.90600000e+03 
875.459  2.88700000e+03 
874.561  2.93300000e+03 
873.662  2.89400000e+03 
872.764  2.76100000e+03 
871.866  2.86900000e+03 
870.968  2.98900000e+03 
870.069  2.91900000e+03 
869.171  2.95600000e+03 
868.273  2.78100000e+03 
867.375  2.82000000e+03 
866.477  2.90000000e+03 
865.578  2.86600000e+03 
864.680  2.89000000e+03 
863.782  2.86800000e+03 
862.884  2.90200000e+03 
861.985  2.84100000e+03 
861.087  2.77900000e+03 
860.189  2.80700000e+03 
859.291  2.76500000e+03 
858.392  2.79100000e+03 
857.494  2.85900000e+03 
856.596  2.86300000e+03 
855.698  2.77800000e+03 
854.800  2.94100000e+03 
853.901  2.78500000e+03 
853.003  2.85000000e+03 
852.105  2.85400000e+03 
851.207  2.91000000e+03 
850.308  2.80500000e+03 
849.410  2.78300000e+03 
848.512  2.74300000e+03 
847.614  2.84700000e+03 
846.716  2.76600000e+03 
845.817  2.73400000e+03 
844.919  2.70600000e+03 
844.021  2.81300000e+03 
843.123  2.73500000e+03 
842.224  2.75700000e+03 
841.326  2.79700000e+03 
840.428  2.77200000e+03 
839.530  2.73200000e+03 
838.631  2.78300000e+03 
837.733  2.79900000e+03 
836.835  2.77500000e+03 
835.937  2.74200000e+03 
835.039  2.72300000e+03 
834.140  2.78400000e+03 
833.242  2.71400000e+03 
832.344  2.73900000e+03 
831.446  2.86700000e+03 
830.547  2.68500000e+03 
829.649  2.64100000e+03 
828.751  2.66000000e+03 
827.853  2.76000000e+03 
826.955  2.81600000e+03 
826.056  2.76000000e+03 
825.158  2.63500000e+03 
824.260  2.67500000e+03 
823.362  2.65800000e+03 
822.463  2.63100000e+03 
821.565  2.68000000e+03 
820.667  2.75300000e+03 
819.769  2.65400000e+03 
818.870  2.63800000e+03 
817.972  2.64200000e+03 
817.074  2.72800000e+03 
816.176  2.67500000e+03 
815.278  2.64800000e+03 
814.379  2.55800000e+03 
813.481  2.61900000e+03 
812.583  2.64100000e+03 
811.685  2.59800000e+03 
810.786  2.53100000e+03 
809.888  2.59600000e+03 
808.990  2.59700000e+03 
808.092  2.69000000e+03 
807.194  2.53300000e+03 
806.295  2.65800000e+03 
805.397  2.51000000e+03 
804.499  2.54500000e+03 
803.601  2.57800000e+03 
802.702  2.59000000e+03 
801.804  2.51200000e+03 
800.906  2.50600000e+03 
800.008  2.61900000e+03 
799.110  2.62100000e+03 
798.211  2.49700000e+03 
797.313  2.63900000e+03 
796.415  2.53100000e+03 
795.517  2.62300000e+03 
794.618  2.52600000e+03 
793.720  2.48100000e+03 
792.822  2.60600000e+03 
791.924  2.61200000e+03 
791.025  2.50100000e+03 
790.127  2.48900000e+03 
789.229  2.43400000e+03 
788.331  2.58600000e+03 
787.433  2.56500000e+03 
786.534  2.48300000e+03 
785.636  2.51000000e+03 
784.738  2.46300000e+03 
783.840  2.48500000e+03 
782.941  2.44400000e+03 
782.043  2.53200000e+03 
781.145  2.53000000e+03 
780.247  2.44300000e+03 
779.349  2.53300000e+03 
778.450  2.46600000e+03 
777.552  2.49800000e+03 
776.654  2.51900000e+03 
775.756  2.53500000e+03 
774.857  2.51700000e+03 
773.959  2.47300000e+03 
773.061  2.44400000e+03 
772.163  2.46200000e+03 
771.264  2.50100000e+03 
770.366  2.49200000e+03 
769.468  2.50500000e+03 
768.570  2.47800000e+03 
767.672  2.32900000e+03 
766.773  2.48800000e+03 
765.875  2.39600000e+03 
764.977  2.52800000e+03 
764.079  2.47300000e+03 
763.180  2.41000000e+03 
762.282  2.39600000e+03 
761.384  2.43000000e+03 
760.486  2.49400000e+03 
759.588  2.43200000e+03 
758.689  2.47400000e+03 
757.791  2.39200000e+03 
756.893  2.45100000e+03 
755.995  2.40100000e+03 
755.096  2.40700000e+03 
754.198  2.51200000e+03 
753.300  2.43600000e+03 
752.402  2.38900000e+03 
751.503  2.44300000e+03 
750.605  2.32900000e+03 
749.707  2.28500000e+03 
748.809  2.29500000e+03 
747.911  2.32300000e+03 
747.012  2.31300000e+03 
746.114  2.33900000e+03 
745.216  2.25800000e+03 
744.318  2.31100000e+03 
743.419  2.23600000e+03 
742.521  2.27400000e+03 
741.623  2.23000000e+03 
740.725  2.24600000e+03 
739.827  2.27800000e+03 
738.928  2.21800000e+03 
738.030  2.26800000e+03 
737.132  2.26500000e+03 
736.234  2.25400000e+03 
735.335  2.22200000e+03 
734.437  2.21600000e+03 
733.539  2.18400000e+03 
732.641  2.22000000e+03 
731.742  2.26700000e+03 
730.844  2.26600000e+03 
729.946  2.17800000e+03 
729.048  2.20200000e+03 
728.150  2.32900000e+03 
727.251  2.23600000e+03 
726.353  2.23400000e+03 
725.455  2.24000000e+03 
724.557  2.29100000e+03 
723.658  2.30500000e+03 
722.760  2.20100000e+03 
721.862  2.21200000e+03 
720.964  2.25700000e+03 
720.066  2.18700000e+03 
719.167  2.17100000e+03 
718.269  2.12100000e+03 
717.371  2.23600000e+03 
716.473  2.13500000e+03 
715.574  2.21100000e+03 
714.676  2.21600000e+03 
713.778  2.14300000e+03 
712.880  2.19600000e+03 
711.982  2.18900000e+03 
711.083  2.12300000e+03 
710.185  2.20500000e+03 
709.287  2.16200000e+03 
708.389  2.11400000e+03 
707.490  2.05100000e+03 
706.592  2.10400000e+03 
705.694  2.07700000e+03 
704.796  2.13500000e+03 
703.897  2.16000000e+03 
702.999  2.07500000e+03 
702.101  2.07700000e+03 
701.203  2.09500000e+03 
700.305  2.06600000e+03 
699.406  2.07800000e+03 
698.508  2.14500000e+03 
697.610  1.99500000e+03 
696.712  2.03600000e+03 
695.813  2.10400000e+03 
694.915  2.05200000e+03 
694.017  2.04200000e+03 
693.119  2.13000000e+03 
692.221  2.06900000e+03 
691.322  2.03100000e+03 
690.424  1.99700000e+03 
689.526  2.03600000e+03 
688.628  1.99200000e+03 
687.729  1.95500000e+03 
686.831  1.98000000e+03 
685.933  1.99500000e+03 
685.035  1.97600000e+03 
684.136  2.03100000e+03 
683.238  1.93300000e+03 
682.340  1.95200000e+03 
681.442  1.97100000e+03 
680.544  2.00800000e+03 
679.645  1.97000000e+03 
678.747  1.92500000e+03 
677.849  1.94700000e+03 
676.951  1.94200000e+03 
676.052  1.88100000e+03 
675.154  1.94200000e+03 
674.256  1.87600000e+03 
673.358  1.89500000e+03 
672.460  1.89400000e+03 
671.561  1.90200000e+03 
670.663  1.80700000e+03 
669.765  1.91900000e+03 
668.867  1.91900000e+03 
667.968  1.74200000e+03 
667.070  1.83500000e+03 
666.172  1.78800000e+03 
665.274  1.86000000e+03 
664.375  1.78700000e+03 
663.477  1.77700000e+03 
662.579  1.74200000e+03 
661.681  1.85800000e+03 
660.783  1.86600000e+03 
659.884  1.70800000e+03 
658.986  1.70000000e+03 
658.088  1.75300000e+03 
657.190  1.68700000e+03 
656.291  1.71400000e+03 
655.393  1.69300000e+03 
654.495  1.67100000e+03 
653.597  1.66800000e+03 
652.699  1.59600000e+03 
651.800  1.68200000e+03 
650.902  1.62900000e+03 
650.004  1.64200000e+03 
649.106  1.67300000e+03 
648.207  1.54700000e+03 
647.309  1.49800000e+03 
646.411  1.52000000e+03 
645.513  1.59000000e+03 
644.615  1.53400000e+03 
643.716  1.50300000e+03 
642.818  1.47500000e+03 
641.920  1.54600000e+03 
641.022  1.65000000e+03 
640.123  1.76600000e+03 
639.225  1.66500000e+03 
638.327  1.46900000e+03 
637.429  1.40400000e+03 
636.530  1.29300000e+03 
635.632  1.31600000e+03 
634.734  1.29500000e+03 
633.836  1.33000000e+03 
632.938  1.39200000e+03 
632.039  1.35800000e+03 
631.141  1.49000000e+03 
630.243  1.56100000e+03 
629.345  1.76000000e+03 
628.446  1.90800000e+03 
627.548  1.58800000e+03 
626.650  1.23200000e+03 
625.752  1.08900000e+03 
624.854  1.04700000e+03 
623.955  1.00200000e+03 
623.057  1.05900000e+03 
622.159  1.04300000e+03 
621.261  1.08600000e+03 
620.362  1.05400000e+03 
619.464  1.04900000e+03 
618.566  1.08300000e+03 
617.668  1.08600000e+03 
616.769  1.11600000e+03 
615.871  1.05500000e+03 
614.973  1.12700000e+03 
614.075  1.03300000e+03 
613.177  1.06600000e+03 
612.278  1.06300000e+03 
611.380  1.06800000e+03 
610.482  1.05400000e+03 
609.584  1.10500000e+03 
608.685  1.05600000e+03 
607.787  1.05600000e+03 
606.889  1.02500000e+03 
605.991  1.08400000e+03 
605.093  1.08200000e+03 
604.194  1.08600000e+03 
603.296  1.08200000e+03 
602.398  1.07000000e+03 
601.500  1.08200000e+03 
600.601  1.04100000e+03 
599.703  1.10600000e+03 
598.805  1.15200000e+03 
597.907  1.09000000e+03 
597.008  1.11300000e+03 
596.110  1.03200000e+03 
595.212  1.15900000e+03 
594.314  1.08100000e+03 
593.416  1.11100000e+03 
592.517  1.01400000e+03 
591.619  1.08200000e+03 
590.721  1.03500000e+03 
589.823  1.08100000e+03 
588.924  1.05600000e+03 
588.026  1.06200000e+03 
587.128  1.07400000e+03 
586.230  1.09300000e+03 
585.332  1.09500000e+03 
584.433  1.07700000e+03 
583.535  1.09800000e+03 
582.637  1.11000000e+03 
581.739  9.71000000e+02 
580.840  1.08600000e+03 
579.942  1.09600000e+03 
579.044  1.07700000e+03 
578.146  1.04000000e+03 
577.247  1.09600000e+03 
576.349  1.05200000e+03 
575.451  1.06800000e+03 
574.553  1.04400000e+03 
573.655  1.11100000e+03 
572.756  1.09500000e+03 
571.858  1.10400000e+03 
570.960  1.06900000e+03 
570.062  1.11300000e+03 
569.163  1.07200000e+03 
568.265  1.02300000e+03 
567.367  1.06200000e+03 
566.469  1.07500000e+03 
565.571  1.07900000e+03 
564.672  1.12000000e+03 
563.774  1.08600000e+03 
562.876  1.09600000e+03 
561.978  1.01900000e+03 
561.079  1.11400000e+03 
560.181  1.05600000e+03 
559.283  9.94000000e+02 
558.385  1.06600000e+03 
557.487  1.04100000e+03 
556.588  1.06900000e+03 
555.690  1.04700000e+03 
554.792  1.05700000e+03 
553.894  1.03300000e+03 
552.995  1.05600000e+03 
552.097  1.07800000e+03 
551.199  1.03600000e+03 
550.301  1.11500000e+03 
549.402  1.05100000e+03 
548.504  1.06600000e+03 
547.606  1.04100000e+03 
546.708  1.09000000e+03 
545.810  1.04900000e+03 
544.911  1.09500000e+03 
544.013  1.14500000e+03 
543.115  1.09600000e+03 
542.217  1.09500000e+03 
541.318  1.04400000e+03 
540.420  1.07400000e+03 
539.522  9.74000000e+02 
538.624  1.00100000e+03 
537.726  9.37000000e+02 
536.827  8.86000000e+02 
535.929  9.61000000e+02 
535.031  9.19000000e+02 
534.133  9.18000000e+02 
533.234  8.66000000e+02 
532.336  7.74000000e+02 
531.438  7.84000000e+02 
530.540  7.16000000e+02 
529.641  6.89000000e+02 
528.743  6.94000000e+02 
527.845  6.56000000e+02 
526.947  6.60000000e+02 
526.049  6.41000000e+02 
525.150  6.91000000e+02 
524.252  9.63000000e+02 
523.354  1.74800000e+03 
522.456  2.55700000e+03 
521.557  2.47600000e+03 
520.659  1.79900000e+03 
519.761  1.61300000e+03 
518.863  9.36000000e+02 
517.965  5.36000000e+02 
517.066  4.96000000e+02 
516.168  5.10000000e+02 
515.270  4.96000000e+02 
514.372  5.23000000e+02 
513.473  4.68000000e+02 
512.575  4.84000000e+02 
511.677  5.28000000e+02 
510.779  4.89000000e+02 
509.880  5.34000000e+02 
508.982  5.21000000e+02 
508.084  4.45000000e+02 
507.186  4.94000000e+02 
506.288  5.09000000e+02 
505.389  5.00000000e+02 
504.491  4.90000000e+02 
503.593  5.52000000e+02 
502.695  5.13000000e+02 
501.796  5.04000000e+02 
500.898  4.56000000e+02 
500.000  4.76000000e+02 
499.102  5.13000000e+02 
498.204  4.77000000e+02 
497.305  4.93000000e+02 
496.407  5.25000000e+02 
495.509  5.12000000e+02 
494.611  4.98000000e+02 
493.712  5.26000000e+02 
492.814  4.77000000e+02 
491.916  5.30000000e+02 
491.018  5.26000000e+02 
490.120  5.00000000e+02 
489.221  5.77000000e+02 
488.323  5.78000000e+02 
487.425  5.78000000e+02 
486.527  5.65000000e+02 
485.628  5.37000000e+02 
484.730  5.26000000e+02 
483.832  4.64000000e+02 
482.934  5.66000000e+02 
482.035  5.25000000e+02 
481.137  5.14000000e+02 
480.239  5.45000000e+02 
479.341  5.12000000e+02 
478.443  4.77000000e+02 
477.544  4.90000000e+02 
476.646  5.07000000e+02 
475.748  4.97000000e+02 
474.850  4.90000000e+02 
473.951  5.30000000e+02 
473.053  5.22000000e+02 
472.155  4.96000000e+02 
471.257  5.23000000e+02 
470.359  5.26000000e+02 
469.460  5.44000000e+02 
468.562  5.34000000e+02 
467.664  5.30000000e+02 
466.766  4.98000000e+02 
465.867  5.06000000e+02 
464.969  4.75000000e+02 
464.071  5.71000000e+02 
463.173  5.21000000e+02 
462.274  5.15000000e+02 
461.376  5.10000000e+02 
460.478  4.95000000e+02 
459.580  5.25000000e+02 
458.682  5.34000000e+02 
457.783  5.11000000e+02 
456.885  5.55000000e+02 
455.987  5.15000000e+02 
455.089  4.94000000e+02 
454.190  5.26000000e+02 
453.292  4.82000000e+02 
452.394  5.08000000e+02 
451.496  5.11000000e+02 
450.598  5.01000000e+02 
449.699  5.20000000e+02 
448.801  4.96000000e+02 
447.903  5.55000000e+02 
447.005  4.98000000e+02 
446.106  5.51000000e+02 
445.208  5.44000000e+02 
444.310  5.15000000e+02 
443.412  5.22000000e+02 
442.513  5.32000000e+02 
441.615  5.00000000e+02 
440.717  5.33000000e+02 
439.819  5.27000000e+02 
438.921  5.08000000e+02 
438.022  4.92000000e+02 
437.124  4.74000000e+02 
436.226  5.25000000e+02 
435.328  5.06000000e+02 
434.429  5.36000000e+02 
433.531  5.76000000e+02 
432.633  5.58000000e+02 
431.735  5.54000000e+02 
430.837  5.94000000e+02 
429.938  5.28000000e+02 
429.040  5.17000000e+02 
428.142  5.54000000e+02 
427.244  5.67000000e+02 
426.345  5.59000000e+02 
425.447  5.42000000e+02 
424.549  5.55000000e+02 
423.651  5.73000000e+02 
422.753  5.71000000e+02 
421.854  5.67000000e+02 
420.956  5.36000000e+02 
420.058  5.37000000e+02 
419.160  5.64000000e+02 
418.261  5.81000000e+02 
417.363  5.76000000e+02 
416.465  6.16000000e+02 
415.567  5.70000000e+02 
414.668  5.82000000e+02 
413.770  5.51000000e+02 
412.872  5.26000000e+02 
411.974  5.63000000e+02 
411.076  5.34000000e+02 
410.177  5.57000000e+02 
409.279  5.48000000e+02 
408.381  5.22000000e+02 
407.483  5.85000000e+02 
406.584  5.71000000e+02 
405.686  5.19000000e+02 
404.788  5.26000000e+02 
403.890  5.45000000e+02 
402.992  5.30000000e+02 
402.093  5.53000000e+02 
401.195  5.44000000e+02 
400.297  5.70000000e+02 
