EXPERIMENT FILE
Version = 2

[ Experiment Parameters ]
Experiment Description= <none> 
Number_of_Regions_in_Experiment= 1 

Original_File_name= C:\alexesca\data\0907_400W_34Deg.xps 
Instrument= HP ESCA West
Date= 09-07-2012
Time=  15:08:42

[ Layer Parameters ]
Layer_Type= XPS

[ Region 1 Parameters ]
Region_Description = Au Dithered Scan Test              
BEcenter(eV) = 91.000000
BEwidth(eV) = 10.000000
BEstep(eV) = 0.035937
Dwell_Time(sec) = 1.000000
N_o_scans = 1  
N_o_Channels = 278  
Scan_mode = 0  (DITHERED)

[ L= 1 R= 1 ]
BEcenter= 91.000  
BEwidth= -9.955  
Excitation= 1486.600
Time_p_channel= 256.000 
Size= 278
95.977   2.39000000e+02 
95.941   2.71000000e+02 
95.905   2.64000000e+02 
95.870   2.56000000e+02 
95.834   2.71000000e+02 
95.798   2.93000000e+02 
95.762   2.73000000e+02 
95.726   3.44000000e+02 
95.690   3.22000000e+02 
95.654   3.54000000e+02 
95.618   3.73000000e+02 
95.582   3.52000000e+02 
95.546   3.19000000e+02 
95.510   3.40000000e+02 
95.474   3.53000000e+02 
95.438   3.81000000e+02 
95.402   3.71000000e+02 
95.366   3.59000000e+02 
95.330   3.92000000e+02 
95.295   3.83000000e+02 
95.259   4.04000000e+02 
95.223   3.82000000e+02 
95.187   4.33000000e+02 
95.151   3.93000000e+02 
95.115   3.88000000e+02 
95.079   3.35000000e+02 
95.043   3.78000000e+02 
95.007   3.69000000e+02 
94.971   3.40000000e+02 
94.935   4.00000000e+02 
94.899   4.00000000e+02 
94.863   3.64000000e+02 
94.827   3.62000000e+02 
94.791   3.78000000e+02 
94.755   3.35000000e+02 
94.720   3.38000000e+02 
94.684   3.16000000e+02 
94.648   3.45000000e+02 
94.612   3.37000000e+02 
94.576   3.15000000e+02 
94.540   2.77000000e+02 
94.504   2.66000000e+02 
94.468   2.48000000e+02 
94.432   2.65000000e+02 
94.396   2.17000000e+02 
94.360   2.27000000e+02 
94.324   1.88000000e+02 
94.288   1.97000000e+02 
94.252   1.86000000e+02 
94.216   1.89000000e+02 
94.180   1.59000000e+02 
94.145   1.48000000e+02 
94.109   1.41000000e+02 
94.073   1.49000000e+02 
94.037   1.28000000e+02 
94.001   1.16000000e+02 
93.965   1.39000000e+02 
93.929   1.36000000e+02 
93.893   1.10000000e+02 
93.857   1.20000000e+02 
93.821   1.04000000e+02 
93.785   1.16000000e+02 
93.749   1.25000000e+02 
93.713   9.10000000e+01 
93.677   9.40000000e+01 
93.641   1.10000000e+02 
93.605   1.11000000e+02 
93.570   1.11000000e+02 
93.534   1.11000000e+02 
93.498   1.21000000e+02 
93.462   1.28000000e+02 
93.426   1.19000000e+02 
93.390   1.25000000e+02 
93.354   1.08000000e+02 
93.318   1.25000000e+02 
93.282   1.32000000e+02 
93.246   1.49000000e+02 
93.210   1.14000000e+02 
93.174   1.25000000e+02 
93.138   1.39000000e+02 
93.102   1.37000000e+02 
93.066   1.69000000e+02 
93.030   1.56000000e+02 
92.995   1.53000000e+02 
92.959   1.69000000e+02 
92.923   1.56000000e+02 
92.887   1.82000000e+02 
92.851   1.77000000e+02 
92.815   1.98000000e+02 
92.779   1.95000000e+02 
92.743   2.15000000e+02 
92.707   1.90000000e+02 
92.671   2.07000000e+02 
92.635   2.05000000e+02 
92.599   2.62000000e+02 
92.563   2.65000000e+02 
92.527   2.46000000e+02 
92.491   2.32000000e+02 
92.455   2.88000000e+02 
92.420   3.28000000e+02 
92.384   3.01000000e+02 
92.348   3.07000000e+02 
92.312   3.49000000e+02 
92.276   3.21000000e+02 
92.240   3.59000000e+02 
92.204   3.51000000e+02 
92.168   3.58000000e+02 
92.132   3.92000000e+02 
92.096   3.78000000e+02 
92.060   4.36000000e+02 
92.024   3.81000000e+02 
91.988   4.11000000e+02 
91.952   4.22000000e+02 
91.916   4.35000000e+02 
91.880   4.05000000e+02 
91.845   4.67000000e+02 
91.809   4.44000000e+02 
91.773   4.64000000e+02 
91.737   4.78000000e+02 
91.701   4.91000000e+02 
91.665   4.62000000e+02 
91.629   5.09000000e+02 
91.593   4.85000000e+02 
91.557   4.79000000e+02 
91.521   5.25000000e+02 
91.485   4.96000000e+02 
91.449   4.71000000e+02 
91.413   4.31000000e+02 
91.377   4.61000000e+02 
91.341   4.34000000e+02 
91.305   4.02000000e+02 
91.270   4.14000000e+02 
91.234   4.17000000e+02 
91.198   4.19000000e+02 
91.162   4.01000000e+02 
91.126   3.23000000e+02 
91.090   3.36000000e+02 
91.054   3.13000000e+02 
91.018   3.28000000e+02 
90.982   2.67000000e+02 
90.946   2.39000000e+02 
90.910   2.24000000e+02 
90.874   2.16000000e+02 
90.838   2.11000000e+02 
90.802   1.71000000e+02 
90.766   1.58000000e+02 
90.730   1.56000000e+02 
90.695   1.35000000e+02 
90.659   1.18000000e+02 
90.623   1.25000000e+02 
90.587   1.21000000e+02 
90.551   9.70000000e+01 
90.515   7.80000000e+01 
90.479   9.30000000e+01 
90.443   9.40000000e+01 
90.407   7.90000000e+01 
90.371   9.30000000e+01 
90.335   7.60000000e+01 
90.299   7.00000000e+01 
90.263   6.20000000e+01 
90.227   6.60000000e+01 
90.191   6.60000000e+01 
90.155   5.90000000e+01 
90.120   6.30000000e+01 
90.084   6.70000000e+01 
90.048   5.80000000e+01 
90.012   5.00000000e+01 
89.976   6.10000000e+01 
89.940   5.40000000e+01 
89.904   4.50000000e+01 
89.868   6.40000000e+01 
89.832   4.20000000e+01 
89.796   4.90000000e+01 
89.760   6.10000000e+01 
89.724   5.80000000e+01 
89.688   5.10000000e+01 
89.652   4.50000000e+01 
89.616   4.60000000e+01 
89.580   4.20000000e+01 
89.545   4.10000000e+01 
89.509   4.50000000e+01 
89.473   4.70000000e+01 
89.437   4.90000000e+01 
89.401   4.10000000e+01 
89.365   4.30000000e+01 
89.329   4.90000000e+01 
89.293   3.70000000e+01 
89.257   4.90000000e+01 
89.221   4.90000000e+01 
89.185   3.70000000e+01 
89.149   4.20000000e+01 
89.113   5.10000000e+01 
89.077   3.00000000e+01 
89.041   3.80000000e+01 
89.005   4.00000000e+01 
88.970   3.20000000e+01 
88.934   4.40000000e+01 
88.898   4.40000000e+01 
88.862   4.40000000e+01 
88.826   5.10000000e+01 
88.790   3.80000000e+01 
88.754   4.00000000e+01 
88.718   3.60000000e+01 
88.682   4.00000000e+01 
88.646   3.80000000e+01 
88.610   4.10000000e+01 
88.574   3.80000000e+01 
88.538   3.40000000e+01 
88.502   2.90000000e+01 
88.466   3.70000000e+01 
88.430   3.80000000e+01 
88.395   5.10000000e+01 
88.359   4.40000000e+01 
88.323   4.20000000e+01 
88.287   3.10000000e+01 
88.251   4.40000000e+01 
88.215   3.50000000e+01 
88.179   3.30000000e+01 
88.143   3.30000000e+01 
88.107   3.40000000e+01 
88.071   2.10000000e+01 
88.035   3.00000000e+01 
87.999   3.50000000e+01 
87.963   3.20000000e+01 
87.927   3.30000000e+01 
87.891   3.30000000e+01 
87.855   4.20000000e+01 
87.820   4.60000000e+01 
87.784   3.30000000e+01 
87.748   3.00000000e+01 
87.712   4.60000000e+01 
87.676   2.60000000e+01 
87.640   4.00000000e+01 
87.604   4.00000000e+01 
87.568   3.70000000e+01 
87.532   3.80000000e+01 
87.496   3.40000000e+01 
87.460   3.40000000e+01 
87.424   2.40000000e+01 
87.388   2.40000000e+01 
87.352   3.90000000e+01 
87.316   3.50000000e+01 
87.280   3.20000000e+01 
87.245   3.20000000e+01 
87.209   4.10000000e+01 
87.173   3.30000000e+01 
87.137   3.70000000e+01 
87.101   3.60000000e+01 
87.065   2.90000000e+01 
87.029   2.60000000e+01 
86.993   3.50000000e+01 
86.957   4.00000000e+01 
86.921   3.00000000e+01 
86.885   3.20000000e+01 
86.849   4.10000000e+01 
86.813   3.00000000e+01 
86.777   5.10000000e+01 
86.741   4.10000000e+01 
86.705   3.00000000e+01 
86.670   3.70000000e+01 
86.634   4.00000000e+01 
86.598   3.70000000e+01 
86.562   3.60000000e+01 
86.526   3.80000000e+01 
86.490   3.20000000e+01 
86.454   3.80000000e+01 
86.418   3.80000000e+01 
86.382   3.60000000e+01 
86.346   2.50000000e+01 
86.310   2.60000000e+01 
86.274   3.50000000e+01 
86.238   4.20000000e+01 
86.202   3.60000000e+01 
86.166   4.00000000e+01 
86.130   3.10000000e+01 
86.095   3.90000000e+01 
86.059   3.90000000e+01 
86.023   3.10000000e+01 

