EXPERIMENT FILE
Version = 2

[ Experiment Parameters ]
Experiment Description= <none> 
Number_of_Regions_in_Experiment= 1 

Original_File_name= C:\alexesca\data\0907_400W_40Deg.xps 
Instrument= HP ESCA West
Date= 09-07-2012
Time=  16:02:23

[ Layer Parameters ]
Layer_Type= XPS

[ Region 1 Parameters ]
Region_Description = Au Dithered Scan Test              
BEcenter(eV) = 91.000000
BEwidth(eV) = 10.000000
BEstep(eV) = 0.035937
Dwell_Time(sec) = 1.000000
N_o_scans = 1  
N_o_Channels = 278  
Scan_mode = 0  (DITHERED)

[ L= 1 R= 1 ]
BEcenter= 91.000  
BEwidth= -9.955  
Excitation= 1486.600
Time_p_channel= 256.000 
Size= 278
95.977   5.53000000e+02 
95.941   5.11000000e+02 
95.905   5.44000000e+02 
95.870   5.15000000e+02 
95.834   5.62000000e+02 
95.798   5.51000000e+02 
95.762   5.21000000e+02 
95.726   5.46000000e+02 
95.690   5.37000000e+02 
95.654   4.78000000e+02 
95.618   4.91000000e+02 
95.582   4.97000000e+02 
95.546   4.62000000e+02 
95.510   4.59000000e+02 
95.474   4.43000000e+02 
95.438   4.36000000e+02 
95.402   4.11000000e+02 
95.366   3.95000000e+02 
95.330   3.75000000e+02 
95.295   3.51000000e+02 
95.259   3.44000000e+02 
95.223   3.19000000e+02 
95.187   2.82000000e+02 
95.151   2.47000000e+02 
95.115   2.60000000e+02 
95.079   2.49000000e+02 
95.043   2.47000000e+02 
95.007   2.25000000e+02 
94.971   1.99000000e+02 
94.935   1.99000000e+02 
94.899   2.03000000e+02 
94.863   2.12000000e+02 
94.827   1.91000000e+02 
94.791   1.87000000e+02 
94.755   1.82000000e+02 
94.720   1.67000000e+02 
94.684   1.34000000e+02 
94.648   1.72000000e+02 
94.612   1.47000000e+02 
94.576   1.52000000e+02 
94.540   1.71000000e+02 
94.504   1.49000000e+02 
94.468   1.79000000e+02 
94.432   1.47000000e+02 
94.396   1.31000000e+02 
94.360   1.47000000e+02 
94.324   1.45000000e+02 
94.288   1.54000000e+02 
94.252   1.18000000e+02 
94.216   1.40000000e+02 
94.180   1.51000000e+02 
94.145   1.38000000e+02 
94.109   1.58000000e+02 
94.073   1.40000000e+02 
94.037   1.27000000e+02 
94.001   1.36000000e+02 
93.965   1.33000000e+02 
93.929   1.59000000e+02 
93.893   1.68000000e+02 
93.857   1.67000000e+02 
93.821   1.51000000e+02 
93.785   1.75000000e+02 
93.749   1.50000000e+02 
93.713   1.79000000e+02 
93.677   1.41000000e+02 
93.641   2.04000000e+02 
93.605   1.85000000e+02 
93.570   2.01000000e+02 
93.534   1.74000000e+02 
93.498   1.96000000e+02 
93.462   1.78000000e+02 
93.426   2.34000000e+02 
93.390   2.21000000e+02 
93.354   2.25000000e+02 
93.318   2.63000000e+02 
93.282   3.03000000e+02 
93.246   2.79000000e+02 
93.210   2.84000000e+02 
93.174   3.09000000e+02 
93.138   2.88000000e+02 
93.102   3.37000000e+02 
93.066   3.55000000e+02 
93.030   3.23000000e+02 
92.995   3.62000000e+02 
92.959   3.63000000e+02 
92.923   3.85000000e+02 
92.887   4.05000000e+02 
92.851   4.12000000e+02 
92.815   4.52000000e+02 
92.779   4.30000000e+02 
92.743   4.50000000e+02 
92.707   5.01000000e+02 
92.671   5.10000000e+02 
92.635   5.08000000e+02 
92.599   5.14000000e+02 
92.563   4.69000000e+02 
92.527   5.19000000e+02 
92.491   5.55000000e+02 
92.455   5.28000000e+02 
92.420   5.91000000e+02 
92.384   5.75000000e+02 
92.348   5.67000000e+02 
92.312   5.72000000e+02 
92.276   5.88000000e+02 
92.240   5.86000000e+02 
92.204   6.19000000e+02 
92.168   5.82000000e+02 
92.132   6.31000000e+02 
92.096   6.13000000e+02 
92.060   6.36000000e+02 
92.024   5.98000000e+02 
91.988   6.72000000e+02 
91.952   6.25000000e+02 
91.916   5.70000000e+02 
91.880   5.86000000e+02 
91.845   5.88000000e+02 
91.809   5.53000000e+02 
91.773   5.93000000e+02 
91.737   5.67000000e+02 
91.701   5.06000000e+02 
91.665   5.12000000e+02 
91.629   5.07000000e+02 
91.593   4.76000000e+02 
91.557   4.61000000e+02 
91.521   4.26000000e+02 
91.485   4.17000000e+02 
91.449   3.90000000e+02 
91.413   3.38000000e+02 
91.377   2.89000000e+02 
91.341   3.06000000e+02 
91.305   2.72000000e+02 
91.270   2.89000000e+02 
91.234   2.48000000e+02 
91.198   2.33000000e+02 
91.162   2.30000000e+02 
91.126   2.22000000e+02 
91.090   1.81000000e+02 
91.054   1.71000000e+02 
91.018   1.45000000e+02 
90.982   1.70000000e+02 
90.946   1.51000000e+02 
90.910   1.54000000e+02 
90.874   1.28000000e+02 
90.838   1.42000000e+02 
90.802   1.33000000e+02 
90.766   1.23000000e+02 
90.730   1.23000000e+02 
90.695   1.02000000e+02 
90.659   1.24000000e+02 
90.623   9.60000000e+01 
90.587   9.30000000e+01 
90.551   8.10000000e+01 
90.515   7.50000000e+01 
90.479   7.30000000e+01 
90.443   7.50000000e+01 
90.407   8.60000000e+01 
90.371   7.70000000e+01 
90.335   7.90000000e+01 
90.299   8.40000000e+01 
90.263   7.00000000e+01 
90.227   6.50000000e+01 
90.191   7.50000000e+01 
90.155   6.00000000e+01 
90.120   6.90000000e+01 
90.084   6.20000000e+01 
90.048   6.10000000e+01 
90.012   6.30000000e+01 
89.976   5.40000000e+01 
89.940   5.40000000e+01 
89.904   6.20000000e+01 
89.868   6.20000000e+01 
89.832   4.90000000e+01 
89.796   5.60000000e+01 
89.760   6.30000000e+01 
89.724   5.50000000e+01 
89.688   5.90000000e+01 
89.652   5.60000000e+01 
89.616   5.70000000e+01 
89.580   6.00000000e+01 
89.545   6.80000000e+01 
89.509   6.10000000e+01 
89.473   5.20000000e+01 
89.437   4.60000000e+01 
89.401   4.50000000e+01 
89.365   3.70000000e+01 
89.329   5.10000000e+01 
89.293   5.20000000e+01 
89.257   4.80000000e+01 
89.221   5.00000000e+01 
89.185   4.90000000e+01 
89.149   5.40000000e+01 
89.113   4.70000000e+01 
89.077   3.90000000e+01 
89.041   6.10000000e+01 
89.005   4.80000000e+01 
88.970   4.60000000e+01 
88.934   5.80000000e+01 
88.898   6.20000000e+01 
88.862   5.50000000e+01 
88.826   5.10000000e+01 
88.790   4.50000000e+01 
88.754   3.80000000e+01 
88.718   6.00000000e+01 
88.682   4.70000000e+01 
88.646   4.60000000e+01 
88.610   3.70000000e+01 
88.574   4.50000000e+01 
88.538   5.20000000e+01 
88.502   5.10000000e+01 
88.466   4.30000000e+01 
88.430   5.70000000e+01 
88.395   5.40000000e+01 
88.359   4.00000000e+01 
88.323   4.00000000e+01 
88.287   4.30000000e+01 
88.251   4.10000000e+01 
88.215   3.00000000e+01 
88.179   5.40000000e+01 
88.143   3.80000000e+01 
88.107   3.40000000e+01 
88.071   4.00000000e+01 
88.035   4.60000000e+01 
87.999   3.90000000e+01 
87.963   4.80000000e+01 
87.927   3.50000000e+01 
87.891   4.50000000e+01 
87.855   4.00000000e+01 
87.820   3.30000000e+01 
87.784   4.50000000e+01 
87.748   4.80000000e+01 
87.712   3.40000000e+01 
87.676   5.10000000e+01 
87.640   4.60000000e+01 
87.604   4.90000000e+01 
87.568   4.20000000e+01 
87.532   4.00000000e+01 
87.496   4.70000000e+01 
87.460   3.80000000e+01 
87.424   4.90000000e+01 
87.388   5.00000000e+01 
87.352   4.00000000e+01 
87.316   3.60000000e+01 
87.280   4.80000000e+01 
87.245   3.60000000e+01 
87.209   3.90000000e+01 
87.173   5.00000000e+01 
87.137   3.60000000e+01 
87.101   3.90000000e+01 
87.065   3.50000000e+01 
87.029   4.80000000e+01 
86.993   3.20000000e+01 
86.957   5.00000000e+01 
86.921   4.00000000e+01 
86.885   3.90000000e+01 
86.849   3.40000000e+01 
86.813   4.10000000e+01 
86.777   4.10000000e+01 
86.741   3.90000000e+01 
86.705   4.70000000e+01 
86.670   4.20000000e+01 
86.634   4.00000000e+01 
86.598   4.20000000e+01 
86.562   3.90000000e+01 
86.526   4.40000000e+01 
86.490   4.10000000e+01 
86.454   5.40000000e+01 
86.418   4.70000000e+01 
86.382   5.20000000e+01 
86.346   2.80000000e+01 
86.310   3.70000000e+01 
86.274   3.70000000e+01 
86.238   3.90000000e+01 
86.202   4.60000000e+01 
86.166   3.50000000e+01 
86.130   4.40000000e+01 
86.095   5.60000000e+01 
86.059   4.90000000e+01 
86.023   4.50000000e+01 

