EXPERIMENT FILE
Version = 2

[ Experiment Parameters ]
Experiment Description= Four 
Number_of_Regions_in_Experiment= 10 

Original_File_name= C:\alexesca\data\Noise]\Batch2_40Cu854_111414.xps 
Instrument= HP ESCA West
Date= 11-17-2014
Time=  21:22:47

[ Layer Parameters ]
Layer_Type= XPS

[ Region 1 Parameters ]
Region_Description = Fixed854eV                         
BEcenter(eV) = 854.000000
BEwidth(eV) = 9.200000
BEstep(eV) = 0.035937
Dwell_Time(sec) = 1.000000
N_o_scans = 1000  
N_o_Channels = 256  
Scan_mode = 1  (FIXED)

[ Region 2 Parameters ]
Region_Description = Fixed854eV                         
BEcenter(eV) = 854.000000
BEwidth(eV) = 9.200000
BEstep(eV) = 0.035937
Dwell_Time(sec) = 1.000000
N_o_scans = 1000  
N_o_Channels = 256  
Scan_mode = 1  (FIXED)

[ Region 3 Parameters ]
Region_Description = Fixed854eV                         
BEcenter(eV) = 854.000000
BEwidth(eV) = 9.200000
BEstep(eV) = 0.035937
Dwell_Time(sec) = 1.000000
N_o_scans = 1000  
N_o_Channels = 256  
Scan_mode = 1  (FIXED)

[ Region 4 Parameters ]
Region_Description = Fixed854eV                         
BEcenter(eV) = 854.000000
BEwidth(eV) = 9.200000
BEstep(eV) = 0.035937
Dwell_Time(sec) = 1.000000
N_o_scans = 1000  
N_o_Channels = 256  
Scan_mode = 1  (FIXED)

[ Region 5 Parameters ]
Region_Description = Fixed854eV                         
BEcenter(eV) = 854.000000
BEwidth(eV) = 9.200000
BEstep(eV) = 0.035937
Dwell_Time(sec) = 1.000000
N_o_scans = 1000  
N_o_Channels = 256  
Scan_mode = 1  (FIXED)

[ Region 6 Parameters ]
Region_Description = Fixed854eV                         
BEcenter(eV) = 854.000000
BEwidth(eV) = 9.200000
BEstep(eV) = 0.035937
Dwell_Time(sec) = 1.000000
N_o_scans = 1000  
N_o_Channels = 256  
Scan_mode = 1  (FIXED)

[ Region 7 Parameters ]
Region_Description = Fixed854eV                         
BEcenter(eV) = 854.000000
BEwidth(eV) = 9.200000
BEstep(eV) = 0.035937
Dwell_Time(sec) = 1.000000
N_o_scans = 1000  
N_o_Channels = 256  
Scan_mode = 1  (FIXED)

[ Region 8 Parameters ]
Region_Description = Fixed854eV                         
BEcenter(eV) = 854.000000
BEwidth(eV) = 9.200000
BEstep(eV) = 0.035937
Dwell_Time(sec) = 1.000000
N_o_scans = 1000  
N_o_Channels = 256  
Scan_mode = 1  (FIXED)

[ Region 9 Parameters ]
Region_Description = Fixed854eV                         
BEcenter(eV) = 854.000000
BEwidth(eV) = 9.200000
BEstep(eV) = 0.035937
Dwell_Time(sec) = 1.000000
N_o_scans = 1000  
N_o_Channels = 256  
Scan_mode = 1  (FIXED)

[ Region 10 Parameters ]
Region_Description = Fixed854eV                         
BEcenter(eV) = 854.000000
BEwidth(eV) = 9.200000
BEstep(eV) = 0.035937
Dwell_Time(sec) = 1.000000
N_o_scans = 1000  
N_o_Channels = 256  
Scan_mode = 1  (FIXED)

[ L= 1 R= 1 ]
BEcenter= 854.000 
BEwidth= -9.200  
Excitation= 1486.600
Time_p_channel= 1000.000
Size= 256
858.600  1.58500000e+03 
858.564  1.62700000e+03 
858.528  1.66200000e+03 
858.492  1.65700000e+03 
858.456  1.60800000e+03 
858.420  1.65300000e+03 
858.384  1.67600000e+03 
858.347  1.72400000e+03 
858.311  1.71800000e+03 
858.275  1.77100000e+03 
858.239  1.80300000e+03 
858.203  1.69900000e+03 
858.167  1.68400000e+03 
858.131  1.72100000e+03 
858.095  1.76900000e+03 
858.059  1.82600000e+03 
858.023  1.73300000e+03 
857.987  1.73700000e+03 
857.951  1.65000000e+03 
857.915  1.76500000e+03 
857.878  1.73600000e+03 
857.842  1.81300000e+03 
857.806  1.81800000e+03 
857.770  1.76900000e+03 
857.734  1.71700000e+03 
857.698  1.75600000e+03 
857.662  1.71500000e+03 
857.626  1.75400000e+03 
857.590  1.85200000e+03 
857.554  1.79500000e+03 
857.518  1.79300000e+03 
857.482  1.79200000e+03 
857.445  1.90000000e+03 
857.409  1.85400000e+03 
857.373  1.81300000e+03 
857.337  1.86600000e+03 
857.301  1.87100000e+03 
857.265  1.83400000e+03 
857.229  1.78500000e+03 
857.193  1.94400000e+03 
857.157  1.88400000e+03 
857.121  1.87500000e+03 
857.085  1.86700000e+03 
857.049  1.88400000e+03 
857.013  1.86700000e+03 
856.976  1.93800000e+03 
856.940  1.93500000e+03 
856.904  1.93000000e+03 
856.868  1.85900000e+03 
856.832  1.97000000e+03 
856.796  1.93700000e+03 
856.760  1.94000000e+03 
856.724  2.06800000e+03 
856.688  1.92600000e+03 
856.652  1.97500000e+03 
856.616  2.00700000e+03 
856.580  1.98600000e+03 
856.544  1.95100000e+03 
856.507  1.94700000e+03 
856.471  2.01300000e+03 
856.435  2.05200000e+03 
856.399  2.01200000e+03 
856.363  1.94300000e+03 
856.327  2.00800000e+03 
856.291  2.00600000e+03 
856.255  1.97900000e+03 
856.219  1.98000000e+03 
856.183  2.03300000e+03 
856.147  2.02000000e+03 
856.111  2.00600000e+03 
856.075  2.05900000e+03 
856.038  1.98600000e+03 
856.002  2.01500000e+03 
855.966  1.98500000e+03 
855.930  2.11900000e+03 
855.894  2.04700000e+03 
855.858  2.07900000e+03 
855.822  2.09300000e+03 
855.786  2.08600000e+03 
855.750  2.13500000e+03 
855.714  2.05300000e+03 
855.678  2.10900000e+03 
855.642  2.15200000e+03 
855.605  2.19800000e+03 
855.569  2.15900000e+03 
855.533  2.17100000e+03 
855.497  2.15000000e+03 
855.461  2.14400000e+03 
855.425  2.18400000e+03 
855.389  2.12500000e+03 
855.353  2.04500000e+03 
855.317  2.05200000e+03 
855.281  2.03500000e+03 
855.245  2.02800000e+03 
855.209  2.06900000e+03 
855.173  2.06600000e+03 
855.136  2.11500000e+03 
855.100  2.06700000e+03 
855.064  1.96400000e+03 
855.028  2.14500000e+03 
854.992  2.02200000e+03 
854.956  1.98600000e+03 
854.920  2.00200000e+03 
854.884  2.04200000e+03 
854.848  1.95900000e+03 
854.812  1.98000000e+03 
854.776  2.00600000e+03 
854.740  1.95700000e+03 
854.704  1.95300000e+03 
854.667  1.91400000e+03 
854.631  1.88600000e+03 
854.595  1.94100000e+03 
854.559  1.91800000e+03 
854.523  1.90200000e+03 
854.487  1.95000000e+03 
854.451  1.90200000e+03 
854.415  1.90000000e+03 
854.379  1.81600000e+03 
854.343  1.86200000e+03 
854.307  1.91000000e+03 
854.271  1.98600000e+03 
854.235  1.82600000e+03 
854.198  1.90300000e+03 
854.162  1.89600000e+03 
854.126  1.88700000e+03 
854.090  1.83900000e+03 
854.054  1.82200000e+03 
854.018  1.87300000e+03 
853.982  1.86200000e+03 
853.946  1.80800000e+03 
853.910  1.95900000e+03 
853.874  1.80200000e+03 
853.838  1.82200000e+03 
853.802  1.77200000e+03 
853.765  1.78000000e+03 
853.729  1.80400000e+03 
853.693  1.83600000e+03 
853.657  1.75600000e+03 
853.621  1.76900000e+03 
853.585  1.80000000e+03 
853.549  1.80100000e+03 
853.513  1.87300000e+03 
853.477  1.82500000e+03 
853.441  1.80700000e+03 
853.405  1.78100000e+03 
853.369  1.80000000e+03 
853.333  1.79200000e+03 
853.296  1.78300000e+03 
853.260  1.73400000e+03 
853.224  1.77900000e+03 
853.188  1.70200000e+03 
853.152  1.69300000e+03 
853.116  1.72900000e+03 
853.080  1.67500000e+03 
853.044  1.74000000e+03 
853.008  1.67400000e+03 
852.972  1.76300000e+03 
852.936  1.68600000e+03 
852.900  1.65700000e+03 
852.864  1.71300000e+03 
852.827  1.68000000e+03 
852.791  1.66900000e+03 
852.755  1.60200000e+03 
852.719  1.62900000e+03 
852.683  1.69600000e+03 
852.647  1.58000000e+03 
852.611  1.65000000e+03 
852.575  1.58800000e+03 
852.539  1.72200000e+03 
852.503  1.73000000e+03 
852.467  1.62100000e+03 
852.431  1.61600000e+03 
852.395  1.66700000e+03 
852.358  1.63900000e+03 
852.322  1.67600000e+03 
852.286  1.69600000e+03 
852.250  1.66200000e+03 
852.214  1.57400000e+03 
852.178  1.67400000e+03 
852.142  1.66900000e+03 
852.106  1.71300000e+03 
852.070  1.63100000e+03 
852.034  1.64900000e+03 
851.998  1.65300000e+03 
851.962  1.60300000e+03 
851.925  1.68000000e+03 
851.889  1.67300000e+03 
851.853  1.63700000e+03 
851.817  1.61000000e+03 
851.781  1.57600000e+03 
851.745  1.52800000e+03 
851.709  1.49000000e+03 
851.673  1.56800000e+03 
851.637  1.51600000e+03 
851.601  1.49200000e+03 
851.565  1.54600000e+03 
851.529  1.54700000e+03 
851.493  1.53800000e+03 
851.456  1.52000000e+03 
851.420  1.50100000e+03 
851.384  1.50200000e+03 
851.348  1.55300000e+03 
851.312  1.52700000e+03 
851.276  1.48300000e+03 
851.240  1.52100000e+03 
851.204  1.50200000e+03 
851.168  1.39800000e+03 
851.132  1.48000000e+03 
851.096  1.46900000e+03 
851.060  1.42200000e+03 
851.024  1.48800000e+03 
850.987  1.44200000e+03 
850.951  1.34100000e+03 
850.915  1.49000000e+03 
850.879  1.34500000e+03 
850.843  1.41300000e+03 
850.807  1.36200000e+03 
850.771  1.38500000e+03 
850.735  1.38100000e+03 
850.699  1.30100000e+03 
850.663  1.33100000e+03 
850.627  1.24800000e+03 
850.591  1.20300000e+03 
850.555  1.30400000e+03 
850.518  1.32800000e+03 
850.482  1.36500000e+03 
850.446  1.31300000e+03 
850.410  1.24000000e+03 
850.374  1.29000000e+03 
850.338  1.22900000e+03 
850.302  1.34400000e+03 
850.266  1.26200000e+03 
850.230  1.30200000e+03 
850.194  1.27300000e+03 
850.158  1.20700000e+03 
850.122  1.25900000e+03 
850.085  1.28600000e+03 
850.049  1.26600000e+03 
850.013  1.28100000e+03 
849.977  1.23800000e+03 
849.941  1.29700000e+03 
849.905  1.25500000e+03 
849.869  1.23800000e+03 
849.833  1.15100000e+03 
849.797  1.25900000e+03 
849.761  9.38000000e+02 
849.725  1.01300000e+03 
849.689  1.07200000e+03 
849.653  8.55000000e+02 
849.616  1.03100000e+03 
849.580  9.40000000e+02 
849.544  6.72000000e+02 
849.508  6.49000000e+02 
849.472  3.01000000e+02 
849.436  0.00000000e+00 
849.400  0.00000000e+00 

[ L= 1 R= 2 ]
BEcenter= 854.000 
BEwidth= -9.200  
Excitation= 1486.600
Time_p_channel= 1000.000
Size= 256
858.600  1.64400000e+03 
858.564  1.63800000e+03 
858.528  1.62900000e+03 
858.492  1.67500000e+03 
858.456  1.67100000e+03 
858.420  1.76300000e+03 
858.384  1.65500000e+03 
858.347  1.71700000e+03 
858.311  1.61100000e+03 
858.275  1.70700000e+03 
858.239  1.70300000e+03 
858.203  1.76000000e+03 
858.167  1.69700000e+03 
858.131  1.71300000e+03 
858.095  1.71500000e+03 
858.059  1.74400000e+03 
858.023  1.75200000e+03 
857.987  1.71000000e+03 
857.951  1.72300000e+03 
857.915  1.81300000e+03 
857.878  1.72600000e+03 
857.842  1.82000000e+03 
857.806  1.74600000e+03 
857.770  1.78100000e+03 
857.734  1.77300000e+03 
857.698  1.77100000e+03 
857.662  1.80500000e+03 
857.626  1.74900000e+03 
857.590  1.79800000e+03 
857.554  1.77100000e+03 
857.518  1.87800000e+03 
857.482  1.81700000e+03 
857.445  1.81900000e+03 
857.409  1.73800000e+03 
857.373  1.77300000e+03 
857.337  1.82400000e+03 
857.301  1.83900000e+03 
857.265  1.80700000e+03 
857.229  1.94000000e+03 
857.193  1.79600000e+03 
857.157  1.94300000e+03 
857.121  1.92100000e+03 
857.085  1.87300000e+03 
857.049  1.96100000e+03 
857.013  1.96500000e+03 
856.976  2.00000000e+03 
856.940  1.95200000e+03 
856.904  1.94200000e+03 
856.868  1.86900000e+03 
856.832  1.95300000e+03 
856.796  1.90400000e+03 
856.760  2.03100000e+03 
856.724  2.00800000e+03 
856.688  1.95800000e+03 
856.652  1.99300000e+03 
856.616  2.04000000e+03 
856.580  1.97600000e+03 
856.544  1.96500000e+03 
856.507  2.04500000e+03 
856.471  2.00400000e+03 
856.435  2.00900000e+03 
856.399  2.03900000e+03 
856.363  2.01100000e+03 
856.327  2.01900000e+03 
856.291  2.02500000e+03 
856.255  1.95600000e+03 
856.219  1.96000000e+03 
856.183  2.03500000e+03 
856.147  2.13500000e+03 
856.111  2.04800000e+03 
856.075  2.05600000e+03 
856.038  2.02200000e+03 
856.002  2.01600000e+03 
855.966  2.09100000e+03 
855.930  2.05800000e+03 
855.894  2.02700000e+03 
855.858  2.04100000e+03 
855.822  2.08900000e+03 
855.786  2.07700000e+03 
855.750  2.05000000e+03 
855.714  2.10000000e+03 
855.678  2.19200000e+03 
855.642  2.08700000e+03 
855.605  2.10100000e+03 
855.569  2.19900000e+03 
855.533  2.17300000e+03 
855.497  2.20800000e+03 
855.461  2.17400000e+03 
855.425  2.13300000e+03 
855.389  2.17300000e+03 
855.353  2.06000000e+03 
855.317  2.05200000e+03 
855.281  2.00000000e+03 
855.245  1.99000000e+03 
855.209  2.06900000e+03 
855.173  2.01000000e+03 
855.136  2.05100000e+03 
855.100  2.00200000e+03 
855.064  2.07000000e+03 
855.028  1.94300000e+03 
854.992  2.02900000e+03 
854.956  1.91500000e+03 
854.920  2.10800000e+03 
854.884  2.03100000e+03 
854.848  1.92200000e+03 
854.812  1.95000000e+03 
854.776  1.90700000e+03 
854.740  2.00400000e+03 
854.704  1.90900000e+03 
854.667  1.97300000e+03 
854.631  1.90800000e+03 
854.595  1.90100000e+03 
854.559  1.95600000e+03 
854.523  1.95400000e+03 
854.487  1.86400000e+03 
854.451  1.88400000e+03 
854.415  1.83500000e+03 
854.379  1.83200000e+03 
854.343  1.84600000e+03 
854.307  1.86800000e+03 
854.271  1.87800000e+03 
854.235  1.87000000e+03 
854.198  1.82600000e+03 
854.162  1.83800000e+03 
854.126  1.79500000e+03 
854.090  1.86600000e+03 
854.054  1.88300000e+03 
854.018  1.77700000e+03 
853.982  1.87800000e+03 
853.946  1.78400000e+03 
853.910  1.76500000e+03 
853.874  1.77400000e+03 
853.838  1.87500000e+03 
853.802  1.79000000e+03 
853.765  1.82400000e+03 
853.729  1.77700000e+03 
853.693  1.83800000e+03 
853.657  1.75300000e+03 
853.621  1.81700000e+03 
853.585  1.83100000e+03 
853.549  1.78800000e+03 
853.513  1.80000000e+03 
853.477  1.84300000e+03 
853.441  1.75800000e+03 
853.405  1.84600000e+03 
853.369  1.79900000e+03 
853.333  1.79800000e+03 
853.296  1.68600000e+03 
853.260  1.77700000e+03 
853.224  1.79200000e+03 
853.188  1.78800000e+03 
853.152  1.78400000e+03 
853.116  1.75300000e+03 
853.080  1.76400000e+03 
853.044  1.68700000e+03 
853.008  1.78700000e+03 
852.972  1.71500000e+03 
852.936  1.70100000e+03 
852.900  1.70000000e+03 
852.864  1.64000000e+03 
852.827  1.73600000e+03 
852.791  1.68700000e+03 
852.755  1.65400000e+03 
852.719  1.69400000e+03 
852.683  1.63400000e+03 
852.647  1.58900000e+03 
852.611  1.67500000e+03 
852.575  1.65800000e+03 
852.539  1.64700000e+03 
852.503  1.69200000e+03 
852.467  1.65400000e+03 
852.431  1.56000000e+03 
852.395  1.70100000e+03 
852.358  1.64900000e+03 
852.322  1.60800000e+03 
852.286  1.69100000e+03 
852.250  1.53100000e+03 
852.214  1.61600000e+03 
852.178  1.62900000e+03 
852.142  1.69700000e+03 
852.106  1.68100000e+03 
852.070  1.65900000e+03 
852.034  1.65100000e+03 
851.998  1.59200000e+03 
851.962  1.63900000e+03 
851.925  1.62100000e+03 
851.889  1.62900000e+03 
851.853  1.64100000e+03 
851.817  1.59700000e+03 
851.781  1.58700000e+03 
851.745  1.60800000e+03 
851.709  1.64400000e+03 
851.673  1.58600000e+03 
851.637  1.51400000e+03 
851.601  1.54500000e+03 
851.565  1.48400000e+03 
851.529  1.50200000e+03 
851.493  1.48100000e+03 
851.456  1.55700000e+03 
851.420  1.51700000e+03 
851.384  1.50200000e+03 
851.348  1.46400000e+03 
851.312  1.45800000e+03 
851.276  1.37700000e+03 
851.240  1.46800000e+03 
851.204  1.41700000e+03 
851.168  1.44000000e+03 
851.132  1.45600000e+03 
851.096  1.48600000e+03 
851.060  1.41200000e+03 
851.024  1.48700000e+03 
850.987  1.43600000e+03 
850.951  1.39100000e+03 
850.915  1.34100000e+03 
850.879  1.38100000e+03 
850.843  1.40400000e+03 
850.807  1.38700000e+03 
850.771  1.31900000e+03 
850.735  1.32000000e+03 
850.699  1.32000000e+03 
850.663  1.33500000e+03 
850.627  1.23400000e+03 
850.591  1.31100000e+03 
850.555  1.36300000e+03 
850.518  1.37200000e+03 
850.482  1.32800000e+03 
850.446  1.23200000e+03 
850.410  1.30700000e+03 
850.374  1.23500000e+03 
850.338  1.25100000e+03 
850.302  1.26400000e+03 
850.266  1.30200000e+03 
850.230  1.31500000e+03 
850.194  1.27400000e+03 
850.158  1.22700000e+03 
850.122  1.27000000e+03 
850.085  1.30300000e+03 
850.049  1.30200000e+03 
850.013  1.21500000e+03 
849.977  1.27200000e+03 
849.941  1.23900000e+03 
849.905  1.20700000e+03 
849.869  1.18500000e+03 
849.833  1.15100000e+03 
849.797  1.21600000e+03 
849.761  9.96000000e+02 
849.725  9.86000000e+02 
849.689  1.05200000e+03 
849.653  8.66000000e+02 
849.616  9.31000000e+02 
849.580  9.13000000e+02 
849.544  7.21000000e+02 
849.508  6.26000000e+02 
849.472  3.28000000e+02 
849.436  0.00000000e+00 
849.400  0.00000000e+00 

[ L= 1 R= 3 ]
BEcenter= 854.000 
BEwidth= -9.200  
Excitation= 1486.600
Time_p_channel= 1000.000
Size= 256
858.600  1.61000000e+03 
858.564  1.59300000e+03 
858.528  1.66400000e+03 
858.492  1.62900000e+03 
858.456  1.64300000e+03 
858.420  1.68900000e+03 
858.384  1.70800000e+03 
858.347  1.77300000e+03 
858.311  1.73300000e+03 
858.275  1.76000000e+03 
858.239  1.63500000e+03 
858.203  1.71600000e+03 
858.167  1.70300000e+03 
858.131  1.73600000e+03 
858.095  1.71600000e+03 
858.059  1.77800000e+03 
858.023  1.70300000e+03 
857.987  1.71700000e+03 
857.951  1.70100000e+03 
857.915  1.69900000e+03 
857.878  1.73500000e+03 
857.842  1.77600000e+03 
857.806  1.69500000e+03 
857.770  1.80200000e+03 
857.734  1.83900000e+03 
857.698  1.78200000e+03 
857.662  1.77600000e+03 
857.626  1.82600000e+03 
857.590  1.78600000e+03 
857.554  1.81500000e+03 
857.518  1.88100000e+03 
857.482  1.80400000e+03 
857.445  1.73900000e+03 
857.409  1.85800000e+03 
857.373  1.87900000e+03 
857.337  1.85100000e+03 
857.301  1.92100000e+03 
857.265  1.87100000e+03 
857.229  1.82700000e+03 
857.193  1.86400000e+03 
857.157  1.91500000e+03 
857.121  1.88400000e+03 
857.085  1.95900000e+03 
857.049  1.89300000e+03 
857.013  1.98600000e+03 
856.976  1.99000000e+03 
856.940  1.91100000e+03 
856.904  1.94100000e+03 
856.868  1.95200000e+03 
856.832  1.95000000e+03 
856.796  2.01400000e+03 
856.760  2.07300000e+03 
856.724  1.92800000e+03 
856.688  1.99500000e+03 
856.652  1.97400000e+03 
856.616  1.99800000e+03 
856.580  1.99900000e+03 
856.544  1.97200000e+03 
856.507  1.96100000e+03 
856.471  2.00500000e+03 
856.435  1.98000000e+03 
856.399  1.98300000e+03 
856.363  2.00600000e+03 
856.327  1.93500000e+03 
856.291  2.06300000e+03 
856.255  1.96200000e+03 
856.219  2.03700000e+03 
856.183  2.04500000e+03 
856.147  2.02500000e+03 
856.111  1.89500000e+03 
856.075  2.00100000e+03 
856.038  1.97300000e+03 
856.002  2.05800000e+03 
855.966  2.08900000e+03 
855.930  2.01600000e+03 
855.894  2.07900000e+03 
855.858  2.05800000e+03 
855.822  2.11000000e+03 
855.786  2.08300000e+03 
855.750  2.11900000e+03 
855.714  2.11200000e+03 
855.678  2.20900000e+03 
855.642  2.22700000e+03 
855.605  2.06600000e+03 
855.569  2.00700000e+03 
855.533  2.09500000e+03 
855.497  2.19800000e+03 
855.461  2.12800000e+03 
855.425  2.07500000e+03 
855.389  2.09300000e+03 
855.353  2.12400000e+03 
855.317  2.10600000e+03 
855.281  2.07300000e+03 
855.245  2.03400000e+03 
855.209  1.99100000e+03 
855.173  2.09000000e+03 
855.136  2.04300000e+03 
855.100  2.07600000e+03 
855.064  2.01100000e+03 
855.028  1.99200000e+03 
854.992  1.96800000e+03 
854.956  2.01500000e+03 
854.920  2.00200000e+03 
854.884  2.01300000e+03 
854.848  2.03100000e+03 
854.812  1.96400000e+03 
854.776  1.91900000e+03 
854.740  2.03500000e+03 
854.704  1.94900000e+03 
854.667  2.00600000e+03 
854.631  1.88500000e+03 
854.595  1.92000000e+03 
854.559  1.85400000e+03 
854.523  1.92900000e+03 
854.487  1.94000000e+03 
854.451  1.88300000e+03 
854.415  1.87500000e+03 
854.379  1.94500000e+03 
854.343  1.88500000e+03 
854.307  1.90500000e+03 
854.271  1.87300000e+03 
854.235  1.95300000e+03 
854.198  1.88400000e+03 
854.162  1.85300000e+03 
854.126  1.80900000e+03 
854.090  1.91200000e+03 
854.054  1.85200000e+03 
854.018  1.85300000e+03 
853.982  1.88300000e+03 
853.946  1.74000000e+03 
853.910  1.89300000e+03 
853.874  1.83200000e+03 
853.838  1.82800000e+03 
853.802  1.77700000e+03 
