EXPERIMENT FILE
Version = 2

[ Experiment Parameters ]
Experiment Description= Five 
Number_of_Regions_in_Experiment= 10 

Original_File_name= C:\alexesca\data\Noise]\Batch2_50Cu854_111414.xps 
Instrument= HP ESCA West
Date= 11-18-2014
Time=  12:38:15

[ Layer Parameters ]
Layer_Type= XPS

[ Region 1 Parameters ]
Region_Description = Fixed854eV                         
BEcenter(eV) = 854.000000
BEwidth(eV) = 9.200000
BEstep(eV) = 0.035937
Dwell_Time(sec) = 1.000000
N_o_scans = 1000  
N_o_Channels = 256  
Scan_mode = 1  (FIXED)

[ Region 2 Parameters ]
Region_Description = Fixed854eV                         
BEcenter(eV) = 854.000000
BEwidth(eV) = 9.200000
BEstep(eV) = 0.035937
Dwell_Time(sec) = 1.000000
N_o_scans = 1000  
N_o_Channels = 256  
Scan_mode = 1  (FIXED)

[ Region 3 Parameters ]
Region_Description = Fixed854eV                         
BEcenter(eV) = 854.000000
BEwidth(eV) = 9.200000
BEstep(eV) = 0.035937
Dwell_Time(sec) = 1.000000
N_o_scans = 1000  
N_o_Channels = 256  
Scan_mode = 1  (FIXED)

[ Region 4 Parameters ]
Region_Description = Fixed854eV                         
BEcenter(eV) = 854.000000
BEwidth(eV) = 9.200000
BEstep(eV) = 0.035937
Dwell_Time(sec) = 1.000000
N_o_scans = 1000  
N_o_Channels = 256  
Scan_mode = 1  (FIXED)

[ Region 5 Parameters ]
Region_Description = Fixed854eV                         
BEcenter(eV) = 854.000000
BEwidth(eV) = 9.200000
BEstep(eV) = 0.035937
Dwell_Time(sec) = 1.000000
N_o_scans = 1000  
N_o_Channels = 256  
Scan_mode = 1  (FIXED)

[ Region 6 Parameters ]
Region_Description = Fixed854eV                         
BEcenter(eV) = 854.000000
BEwidth(eV) = 9.200000
BEstep(eV) = 0.035937
Dwell_Time(sec) = 1.000000
N_o_scans = 1000  
N_o_Channels = 256  
Scan_mode = 1  (FIXED)

[ Region 7 Parameters ]
Region_Description = Fixed854eV                         
BEcenter(eV) = 854.000000
BEwidth(eV) = 9.200000
BEstep(eV) = 0.035937
Dwell_Time(sec) = 1.000000
N_o_scans = 1000  
N_o_Channels = 256  
Scan_mode = 1  (FIXED)

[ Region 8 Parameters ]
Region_Description = Fixed854eV                         
BEcenter(eV) = 854.000000
BEwidth(eV) = 9.200000
BEstep(eV) = 0.035937
Dwell_Time(sec) = 1.000000
N_o_scans = 1000  
N_o_Channels = 256  
Scan_mode = 1  (FIXED)

[ Region 9 Parameters ]
Region_Description = Fixed854eV                         
BEcenter(eV) = 854.000000
BEwidth(eV) = 9.200000
BEstep(eV) = 0.035937
Dwell_Time(sec) = 1.000000
N_o_scans = 1000  
N_o_Channels = 256  
Scan_mode = 1  (FIXED)

[ Region 10 Parameters ]
Region_Description = Fixed854eV                         
BEcenter(eV) = 854.000000
BEwidth(eV) = 9.200000
BEstep(eV) = 0.035937
Dwell_Time(sec) = 1.000000
N_o_scans = 1000  
N_o_Channels = 256  
Scan_mode = 1  (FIXED)

[ L= 1 R= 1 ]
BEcenter= 854.000 
BEwidth= -9.200  
Excitation= 1486.600
Time_p_channel= 1000.000
Size= 256
858.600  1.59900000e+03 
858.564  1.58100000e+03 
858.528  1.75600000e+03 
858.492  1.64200000e+03 
858.456  1.62500000e+03 
858.420  1.67900000e+03 
858.384  1.61500000e+03 
858.347  1.73700000e+03 
858.311  1.66300000e+03 
858.275  1.81500000e+03 
858.239  1.81800000e+03 
858.203  1.75800000e+03 
858.167  1.71300000e+03 
858.131  1.75500000e+03 
858.095  1.68100000e+03 
858.059  1.70600000e+03 
858.023  1.72600000e+03 
857.987  1.69800000e+03 
857.951  1.69200000e+03 
857.915  1.67300000e+03 
857.878  1.79300000e+03 
857.842  1.74100000e+03 
857.806  1.68700000e+03 
857.770  1.68600000e+03 
857.734  1.68900000e+03 
857.698  1.76700000e+03 
857.662  1.84600000e+03 
857.626  1.82300000e+03 
857.590  1.78100000e+03 
857.554  1.81500000e+03 
857.518  1.81000000e+03 
857.482  1.81200000e+03 
857.445  1.85400000e+03 
857.409  1.81300000e+03 
857.373  1.80100000e+03 
857.337  1.82900000e+03 
857.301  1.81200000e+03 
857.265  1.91900000e+03 
857.229  1.82100000e+03 
857.193  1.85000000e+03 
857.157  1.90000000e+03 
857.121  1.84600000e+03 
857.085  1.83000000e+03 
857.049  1.95700000e+03 
857.013  1.88500000e+03 
856.976  1.94000000e+03 
856.940  1.98000000e+03 
856.904  1.93200000e+03 
856.868  1.90300000e+03 
856.832  1.88300000e+03 
856.796  2.01400000e+03 
856.760  1.98400000e+03 
856.724  2.00300000e+03 
856.688  2.02200000e+03 
856.652  1.91200000e+03 
856.616  1.96400000e+03 
856.580  1.93100000e+03 
856.544  2.01100000e+03 
856.507  1.99500000e+03 
856.471  2.01400000e+03 
856.435  2.01500000e+03 
856.399  1.99100000e+03 
856.363  1.87000000e+03 
856.327  1.96300000e+03 
856.291  1.94800000e+03 
856.255  2.02100000e+03 
856.219  2.02900000e+03 
856.183  2.09000000e+03 
856.147  2.05700000e+03 
856.111  2.00600000e+03 
856.075  1.98800000e+03 
856.038  2.06300000e+03 
856.002  2.03300000e+03 
855.966  2.06500000e+03 
855.930  2.06800000e+03 
855.894  2.04900000e+03 
855.858  2.14500000e+03 
855.822  2.04900000e+03 
855.786  2.09000000e+03 
855.750  2.10800000e+03 
855.714  2.09400000e+03 
855.678  2.08600000e+03 
855.642  2.09700000e+03 
855.605  2.10900000e+03 
855.569  2.11000000e+03 
855.533  2.09100000e+03 
855.497  2.16400000e+03 
855.461  2.05500000e+03 
855.425  2.16200000e+03 
855.389  2.05300000e+03 
855.353  2.13100000e+03 
855.317  2.06000000e+03 
855.281  2.09000000e+03 
855.245  2.03300000e+03 
855.209  2.01100000e+03 
855.173  1.93900000e+03 
855.136  2.07800000e+03 
855.100  2.05600000e+03 
855.064  2.04100000e+03 
855.028  2.09400000e+03 
854.992  1.99600000e+03 
854.956  2.00300000e+03 
854.920  1.98000000e+03 
854.884  1.93400000e+03 
854.848  1.90300000e+03 
854.812  1.97400000e+03 
854.776  1.96200000e+03 
854.740  1.97400000e+03 
854.704  1.92700000e+03 
854.667  1.93200000e+03 
854.631  1.89800000e+03 
854.595  1.94100000e+03 
854.559  1.88000000e+03 
854.523  1.91500000e+03 
854.487  1.89200000e+03 
854.451  1.82300000e+03 
854.415  1.85100000e+03 
854.379  1.87500000e+03 
854.343  1.91900000e+03 
854.307  1.82600000e+03 
854.271  1.87200000e+03 
854.235  1.97800000e+03 
854.198  1.87700000e+03 
854.162  1.84100000e+03 
854.126  1.94000000e+03 
854.090  1.92600000e+03 
854.054  1.78000000e+03 
854.018  1.80800000e+03 
853.982  1.87000000e+03 
853.946  1.90000000e+03 
853.910  1.80200000e+03 
853.874  1.80900000e+03 
853.838  1.79600000e+03 
853.802  1.80500000e+03 
853.765  1.76900000e+03 
853.729  1.79200000e+03 
853.693  1.77800000e+03 
853.657  1.82000000e+03 
853.621  1.72800000e+03 
853.585  1.70400000e+03 
853.549  1.79000000e+03 
853.513  1.83400000e+03 
853.477  1.73700000e+03 
853.441  1.75200000e+03 
853.405  1.80400000e+03 
853.369  1.75100000e+03 
853.333  1.72400000e+03 
853.296  1.75000000e+03 
853.260  1.70800000e+03 
853.224  1.76300000e+03 
853.188  1.75900000e+03 
853.152  1.71800000e+03 
853.116  1.71400000e+03 
853.080  1.65800000e+03 
853.044  1.67200000e+03 
853.008  1.72900000e+03 
852.972  1.60500000e+03 
852.936  1.66800000e+03 
852.900  1.69400000e+03 
852.864  1.73400000e+03 
852.827  1.69800000e+03 
852.791  1.70600000e+03 
852.755  1.69100000e+03 
852.719  1.64000000e+03 
852.683  1.59400000e+03 
852.647  1.65900000e+03 
852.611  1.66500000e+03 
852.575  1.58700000e+03 
852.539  1.68100000e+03 
852.503  1.63200000e+03 
852.467  1.59000000e+03 
852.431  1.61300000e+03 
852.395  1.63700000e+03 
852.358  1.59000000e+03 
852.322  1.59400000e+03 
852.286  1.60300000e+03 
852.250  1.64400000e+03 
852.214  1.66600000e+03 
852.178  1.67600000e+03 
852.142  1.67300000e+03 
852.106  1.61600000e+03 
852.070  1.64400000e+03 
852.034  1.65300000e+03 
851.998  1.67100000e+03 
851.962  1.60700000e+03 
851.925  1.59600000e+03 
851.889  1.59100000e+03 
851.853  1.61100000e+03 
851.817  1.66300000e+03 
851.781  1.52300000e+03 
851.745  1.58800000e+03 
851.709  1.59800000e+03 
851.673  1.55800000e+03 
851.637  1.47600000e+03 
851.601  1.56500000e+03 
851.565  1.51400000e+03 
851.529  1.53800000e+03 
851.493  1.53300000e+03 
851.456  1.50100000e+03 
851.420  1.56300000e+03 
851.384  1.47700000e+03 
851.348  1.48700000e+03 
851.312  1.42900000e+03 
851.276  1.41500000e+03 
851.240  1.50300000e+03 
851.204  1.41500000e+03 
851.168  1.38200000e+03 
851.132  1.49700000e+03 
851.096  1.43500000e+03 
851.060  1.41400000e+03 
851.024  1.41700000e+03 
850.987  1.39400000e+03 
850.951  1.37600000e+03 
850.915  1.44700000e+03 
850.879  1.35100000e+03 
850.843  1.29300000e+03 
850.807  1.34000000e+03 
850.771  1.36200000e+03 
850.735  1.37400000e+03 
850.699  1.31400000e+03 
850.663  1.26300000e+03 
850.627  1.34700000e+03 
850.591  1.33500000e+03 
850.555  1.27700000e+03 
850.518  1.31900000e+03 
850.482  1.31900000e+03 
850.446  1.31700000e+03 
850.410  1.32000000e+03 
850.374  1.29100000e+03 
850.338  1.31600000e+03 
850.302  1.27500000e+03 
850.266  1.26000000e+03 
850.230  1.24300000e+03 
850.194  1.32600000e+03 
850.158  1.27500000e+03 
850.122  1.29600000e+03 
850.085  1.18200000e+03 
850.049  1.24000000e+03 
850.013  1.22700000e+03 
849.977  1.22600000e+03 
849.941  1.24800000e+03 
849.905  1.25900000e+03 
849.869  1.23000000e+03 
849.833  1.19800000e+03 
849.797  1.23000000e+03 
849.761  9.72000000e+02 
849.725  9.83000000e+02 
849.689  1.13900000e+03 
849.653  8.56000000e+02 
849.616  9.60000000e+02 
849.580  9.02000000e+02 
849.544  6.82000000e+02 
849.508  6.45000000e+02 
849.472  3.39000000e+02 
849.436  0.00000000e+00 
849.400  0.00000000e+00 

[ L= 1 R= 2 ]
BEcenter= 854.000 
BEwidth= -9.200  
Excitation= 1486.600
Time_p_channel= 1000.000
Size= 256
858.600  1.63400000e+03 
858.564  1.62400000e+03 
858.528  1.58300000e+03 
858.492  1.68300000e+03 
858.456  1.68700000e+03 
858.420  1.63800000e+03 
858.384  1.73700000e+03 
858.347  1.65700000e+03 
858.311  1.68200000e+03 
858.275  1.72600000e+03 
858.239  1.68600000e+03 
858.203  1.75100000e+03 
858.167  1.67500000e+03 
858.131  1.74500000e+03 
858.095  1.73300000e+03 
858.059  1.66700000e+03 
858.023  1.77800000e+03 
857.987  1.75400000e+03 
857.951  1.71400000e+03 
857.915  1.70400000e+03 
857.878  1.74300000e+03 
857.842  1.71200000e+03 
857.806  1.78600000e+03 
857.770  1.78700000e+03 
857.734  1.80200000e+03 
857.698  1.78700000e+03 
857.662  1.78900000e+03 
857.626  1.76800000e+03 
857.590  1.78900000e+03 
857.554  1.80500000e+03 
857.518  1.81200000e+03 
857.482  1.76200000e+03 
857.445  1.78500000e+03 
857.409  1.84100000e+03 
857.373  1.83500000e+03 
857.337  1.84500000e+03 
857.301  1.83700000e+03 
857.265  1.77700000e+03 
857.229  1.77700000e+03 
857.193  1.84100000e+03 
857.157  1.88700000e+03 
857.121  1.88500000e+03 
857.085  1.85300000e+03 
857.049  1.89600000e+03 
857.013  1.88500000e+03 
856.976  1.96400000e+03 
856.940  1.87100000e+03 
856.904  1.87700000e+03 
856.868  1.93600000e+03 
856.832  1.93600000e+03 
856.796  1.95500000e+03 
856.760  1.98500000e+03 
856.724  1.91700000e+03 
856.688  1.91600000e+03 
856.652  1.98700000e+03 
856.616  1.95400000e+03 
856.580  2.04800000e+03 
856.544  1.94900000e+03 
856.507  2.06600000e+03 
856.471  1.98400000e+03 
856.435  2.01500000e+03 
856.399  1.98700000e+03 
856.363  1.90600000e+03 
856.327  1.93600000e+03 
856.291  1.88600000e+03 
856.255  2.02600000e+03 
856.219  1.90800000e+03 
856.183  1.99700000e+03 
856.147  2.05100000e+03 
856.111  2.01100000e+03 
856.075  2.04500000e+03 
856.038  1.99000000e+03 
856.002  2.04500000e+03 
855.966  2.06200000e+03 
855.930  2.10600000e+03 
855.894  2.09300000e+03 
855.858  2.04300000e+03 
855.822  2.13900000e+03 
855.786  2.04700000e+03 
855.750  2.11800000e+03 
855.714  2.09000000e+03 
855.678  2.16000000e+03 
855.642  1.98600000e+03 
855.605  2.07800000e+03 
855.569  2.11300000e+03 
855.533  2.10400000e+03 
855.497  2.17200000e+03 
855.461  2.11600000e+03 
855.425  2.10100000e+03 
855.389  2.09700000e+03 
855.353  2.10100000e+03 
855.317  2.14000000e+03 
855.281  2.07300000e+03 
855.245  1.97700000e+03 
855.209  2.02800000e+03 
855.173  2.00900000e+03 
855.136  2.01100000e+03 
855.100  2.02500000e+03 
855.064  2.11300000e+03 
855.028  2.12600000e+03 
854.992  2.00500000e+03 
854.956  2.01000000e+03 
854.920  2.01200000e+03 
854.884  2.00600000e+03 
854.848  1.94600000e+03 
854.812  1.97200000e+03 
854.776  1.91400000e+03 
854.740  1.90700000e+03 
854.704  1.93300000e+03 
854.667  1.94900000e+03 
854.631  1.98000000e+03 
854.595  1.86400000e+03 
854.559  1.91900000e+03 
854.523  1.89600000e+03 
854.487  1.82100000e+03 
854.451  1.83800000e+03 
854.415  1.88700000e+03 
854.379  1.85700000e+03 
854.343  1.86300000e+03 
854.307  1.88800000e+03 
854.271  1.89500000e+03 
854.235  1.91600000e+03 
854.198  1.88300000e+03 
854.162  1.82300000e+03 
854.126  1.84200000e+03 
854.090  1.84400000e+03 
854.054  1.89600000e+03 
854.018  1.84400000e+03 
853.982  1.85100000e+03 
853.946  1.84100000e+03 
853.910  1.73500000e+03 
853.874  1.79500000e+03 
853.838  1.82600000e+03 
853.802  1.80000000e+03 
853.765  1.82900000e+03 
853.729  1.76400000e+03 
853.693  1.77700000e+03 
853.657  1.82700000e+03 
853.621  1.71900000e+03 
853.585  1.79300000e+03 
853.549  1.77900000e+03 
853.513  1.83500000e+03 
853.477  1.84100000e+03 
853.441  1.85200000e+03 
853.405  1.74900000e+03 
853.369  1.82000000e+03 
853.333  1.71300000e+03 
853.296  1.75300000e+03 
853.260  1.76300000e+03 
853.224  1.75200000e+03 
853.188  1.75400000e+03 
853.152  1.77100000e+03 
853.116  1.71700000e+03 
853.080  1.64400000e+03 
853.044  1.74300000e+03 
853.008  1.76200000e+03 
852.972  1.69400000e+03 
852.936  1.69200000e+03 
852.900  1.60100000e+03 
852.864  1.67400000e+03 
852.827  1.74200000e+03 
852.791  1.60800000e+03 
852.755  1.64600000e+03 
852.719  1.63000000e+03 
852.683  1.64800000e+03 
852.647  1.67500000e+03 
852.611  1.66400000e+03 
852.575  1.67800000e+03 
852.539  1.56900000e+03 
852.503  1.67400000e+03 
852.467  1.57300000e+03 
852.431  1.63500000e+03 
852.395  1.61700000e+03 
852.358  1.61800000e+03 
852.322  1.54700000e+03 
852.286  1.61200000e+03 
852.250  1.60500000e+03 
852.214  1.58000000e+03 
852.178  1.65200000e+03 
852.142  1.58100000e+03 
852.106  1.63500000e+03 
852.070  1.71800000e+03 
852.034  1.60200000e+03 
851.998  1.52300000e+03 
851.962  1.64600000e+03 
851.925  1.62900000e+03 
851.889  1.63000000e+03 
851.853  1.61100000e+03 
851.817  1.56100000e+03 
851.781  1.52700000e+03 
851.745  1.55700000e+03 
851.709  1.60600000e+03 
851.673  1.54000000e+03 
851.637  1.55000000e+03 
851.601  1.54400000e+03 
851.565  1.53600000e+03 
851.529  1.50300000e+03 
851.493  1.50200000e+03 
851.456  1.45800000e+03 
851.420  1.44700000e+03 
851.384  1.43800000e+03 
851.348  1.46700000e+03 
851.312  1.45400000e+03 
851.276  1.47000000e+03 
851.240  1.43600000e+03 
851.204  1.43200000e+03 
851.168  1.38300000e+03 
851.132  1.47200000e+03 
851.096  1.40800000e+03 
851.060  1.48700000e+03 
851.024  1.44300000e+03 
850.987  1.42900000e+03 
850.951  1.36500000e+03 
850.915  1.37500000e+03 
850.879  1.38400000e+03 
850.843  1.41600000e+03 
850.807  1.34200000e+03 
850.771  1.34700000e+03 
850.735  1.35900000e+03 
850.699  1.30500000e+03 
850.663  1.33500000e+03 
850.627  1.31800000e+03 
850.591  1.29700000e+03 
850.555  1.35700000e+03 
850.518  1.29900000e+03 
850.482  1.27400000e+03 
850.446  1.30200000e+03 
850.410  1.30500000e+03 
850.374  1.29100000e+03 
850.338  1.28400000e+03 
850.302  1.34100000e+03 
850.266  1.28800000e+03 
850.230  1.26900000e+03 
850.194  1.24700000e+03 
850.158  1.23500000e+03 
850.122  1.20400000e+03 
850.085  1.24400000e+03 
850.049  1.26800000e+03 
850.013  1.20800000e+03 
849.977  1.22900000e+03 
849.941  1.13600000e+03 
849.905  1.29000000e+03 
849.869  1.18800000e+03 
849.833  1.10200000e+03 
849.797  1.16500000e+03 
849.761  9.26000000e+02 
849.725  9.90000000e+02 
849.689  1.05600000e+03 
849.653  8.64000000e+02 
849.616  9.49000000e+02 
849.580  9.71000000e+02 
849.544  6.27000000e+02 
849.508  6.20000000e+02 
849.472  3.25000000e+02 
849.436  0.00000000e+00 
849.400  0.00000000e+00 

[ L= 1 R= 3 ]
BEcenter= 854.000 
BEwidth= -9.200  
Excitation= 1486.600
Time_p_channel= 1000.000
Size= 256
858.600  1.56100000e+03 
858.564  1.62100000e+03 
858.528  1.59000000e+03 
858.492  1.63400000e+03 
858.456  1.63800000e+03 
858.420  1.67900000e+03 
858.384  1.67700000e+03 
858.347  1.75900000e+03 
858.311  1.67500000e+03 
858.275  1.66400000e+03 
858.239  1.70100000e+03 
858.203  1.81700000e+03 
858.167  1.65100000e+03 
858.131  1.72000000e+03 
858.095  1.72300000e+03 
858.059  1.75300000e+03 
858.023  1.75100000e+03 
857.987  1.57900000e+03 
857.951  1.74100000e+03 
857.915  1.74400000e+03 
857.878  1.69500000e+03 
857.842  1.66500000e+03 
857.806  1.74500000e+03 
857.770  1.69200000e+03 
857.734  1.78400000e+03 
857.698  1.86700000e+03 
857.662  1.79300000e+03 
857.626  1.77300000e+03 
857.590  1.82600000e+03 
857.554  1.84400000e+03 
857.518  1.80500000e+03 
857.482  1.80700000e+03 
857.445  1.84200000e+03 
857.409  1.86600000e+03 
857.373  1.79100000e+03 
857.337  1.79200000e+03 
857.301  1.86400000e+03 
857.265  1.85500000e+03 
857.229  1.86700000e+03 
857.193  1.86600000e+03 
857.157  1.85500000e+03 
857.121  1.94700000e+03 
857.085  1.85300000e+03 
857.049  1.88100000e+03 
857.013  1.88500000e+03 
856.976  1.84200000e+03 
856.940  1.87000000e+03 
856.904  1.97200000e+03 
856.868  2.02300000e+03 
856.832  1.93900000e+03 
856.796  1.98800000e+03 
856.760  1.97900000e+03 
856.724  1.93300000e+03 
856.688  1.98200000e+03 
856.652  1.89700000e+03 
856.616  1.99100000e+03 
856.580  2.03200000e+03 
856.544  1.97800000e+03 
856.507  1.94400000e+03 
856.471  1.95300000e+03 
856.435  1.95400000e+03 
856.399  1.94400000e+03 
856.363  1.97300000e+03 
856.327  2.02700000e+03 
856.291  1.97800000e+03 
856.255  2.00800000e+03 
856.219  1.95500000e+03 
856.183  2.05200000e+03 
856.147  1.98700000e+03 
856.111  2.00400000e+03 
856.075  2.05700000e+03 
856.038  1.95700000e+03 
856.002  1.99600000e+03 
855.966  2.07000000e+03 
855.930  1.97400000e+03 
855.894  2.02000000e+03 
855.858  2.04400000e+03 
855.822  2.11500000e+03 
855.786  2.04100000e+03 
855.750  2.06000000e+03 
855.714  2.06200000e+03 
855.678  2.09200000e+03 
855.642  2.12400000e+03 
855.605  2.11900000e+03 
855.569  2.11700000e+03 
855.533  2.12700000e+03 
855.497  2.09800000e+03 
855.461  2.12900000e+03 
855.425  2.09200000e+03 
855.389  2.06800000e+03 
855.353  2.06800000e+03 
855.317  1.98800000e+03 
855.281  1.98700000e+03 
855.245  2.08900000e+03 
855.209  1.96000000e+03 
855.173  2.00800000e+03 
855.136  1.95600000e+03 
855.100  1.97900000e+03 
855.064  2.04000000e+03 
855.028  1.99200000e+03 
854.992  2.00300000e+03 
854.956  1.93400000e+03 
854.920  2.00000000e+03 
854.884  1.98100000e+03 
854.848  2.07200000e+03 
854.812  2.05800000e+03 
854.776  1.87500000e+03 
854.740  1.96200000e+03 
854.704  1.95300000e+03 
854.667  1.99800000e+03 
854.631  1.96000000e+03 
854.595  1.84900000e+03 
854.559  1.86800000e+03 
854.523  1.82400000e+03 
854.487  1.85000000e+03 
854.451  1.95400000e+03 
854.415  1.80800000e+03 
854.379  1.88700000e+03 
854.343  1.80200000e+03 
854.307  1.98000000e+03 
854.271  1.87700000e+03 
854.235  1.92500000e+03 
854.198  1.90700000e+03 
854.162  1.95000000e+03 
854.126  1.88300000e+03 
854.090  1.86800000e+03 
854.054  1.85700000e+03 
854.018  1.83800000e+03 
853.982  1.89400000e+03 
853.946  1.81100000e+03 
853.910  1.83800000e+03 
853.874  1.79600000e+03 
853.838  1.83600000e+03 
853.802  1.81200000e+03 
