EXPERIMENT FILE
Version = 2

[ Experiment Parameters ]
Experiment Description= Glance 
Number_of_Regions_in_Experiment= 1 

Original_File_name= C:\alexesca\data\New Folder\Idea.xps 
Instrument= HP ESCA West
Date= 10-28-2014
Time=  12:42:40

[ Layer Parameters ]
Layer_Type= XPS

[ Region 1 Parameters ]
Region_Description = Quick_sweep_0.5eVstep_x1           
BEcenter(eV) = 575.000000
BEwidth(eV) = 1152.000000
BEstep(eV) = 0.503125
Dwell_Time(sec) = 1.000000
N_o_scans = 1  
N_o_Channels = 2290  
Scan_mode = 0  (DITHERED)

[ L= 1 R= 1 ]
BEcenter= 575.000 
BEwidth= -1151.653
Excitation= 1486.600
Time_p_channel= 18.286  
Size= 2290
1150.827 6.64700000e+03 
1150.323 6.66500000e+03 
1149.820 6.55100000e+03 
1149.317 6.74000000e+03 
1148.814 6.65000000e+03 
1148.311 6.70800000e+03 
1147.808 6.59200000e+03 
1147.305 6.55500000e+03 
1146.802 6.56600000e+03 
1146.298 6.49400000e+03 
1145.795 6.50900000e+03 
1145.292 6.57200000e+03 
1144.789 6.36400000e+03 
1144.286 6.51000000e+03 
1143.783 6.43900000e+03 
1143.280 6.30800000e+03 
1142.777 6.61500000e+03 
1142.273 6.45800000e+03 
1141.770 6.32700000e+03 
1141.267 6.55300000e+03 
1140.764 6.36400000e+03 
1140.261 6.45000000e+03 
1139.758 6.33300000e+03 
1139.255 6.41100000e+03 
1138.752 6.49200000e+03 
1138.248 6.53200000e+03 
1137.745 6.41700000e+03 
1137.242 6.49800000e+03 
1136.739 6.47200000e+03 
1136.236 6.53600000e+03 
1135.733 6.33300000e+03 
1135.230 6.53400000e+03 
1134.727 6.45200000e+03 
1134.223 6.48300000e+03 
1133.720 6.42900000e+03 
1133.217 6.37200000e+03 
1132.714 6.40400000e+03 
1132.211 6.37800000e+03 
1131.708 6.30500000e+03 
1131.205 6.57700000e+03 
1130.702 6.42000000e+03 
1130.198 6.40700000e+03 
1129.695 6.39100000e+03 
1129.192 6.35800000e+03 
1128.689 6.40200000e+03 
1128.186 6.34700000e+03 
1127.683 6.31200000e+03 
1127.180 6.41000000e+03 
1126.677 6.33300000e+03 
1126.173 6.37100000e+03 
1125.670 6.30300000e+03 
1125.167 6.20400000e+03 
1124.664 6.31000000e+03 
1124.161 6.20900000e+03 
1123.658 6.25300000e+03 
1123.155 6.17600000e+03 
1122.652 6.39900000e+03 
1122.148 6.33300000e+03 
1121.645 6.23000000e+03 
1121.142 6.15900000e+03 
1120.639 6.25800000e+03 
1120.136 6.20700000e+03 
1119.633 6.29400000e+03 
1119.130 6.28600000e+03 
1118.627 6.36000000e+03 
1118.123 6.31000000e+03 
1117.620 6.35700000e+03 
1117.117 6.29500000e+03 
1116.614 6.15700000e+03 
1116.111 6.21800000e+03 
1115.608 6.19900000e+03 
1115.105 6.19600000e+03 
1114.602 6.21400000e+03 
1114.098 6.02300000e+03 
1113.595 6.18700000e+03 
1113.092 6.12600000e+03 
1112.589 6.11700000e+03 
1112.086 6.20500000e+03 
1111.583 6.27600000e+03 
1111.080 6.16800000e+03 
1110.577 5.97000000e+03 
1110.073 6.14900000e+03 
1109.570 6.16900000e+03 
1109.067 6.11300000e+03 
1108.564 6.21200000e+03 
1108.061 6.23500000e+03 
1107.558 6.20400000e+03 
1107.055 6.17000000e+03 
1106.552 6.14700000e+03 
1106.048 6.24500000e+03 
1105.545 6.30000000e+03 
1105.042 6.26900000e+03 
1104.539 6.27800000e+03 
1104.036 6.11400000e+03 
1103.533 6.06300000e+03 
1103.030 6.12900000e+03 
1102.527 6.09800000e+03 
1102.023 6.10900000e+03 
1101.520 6.02500000e+03 
1101.017 5.95500000e+03 
1100.514 6.03700000e+03 
1100.011 5.88800000e+03 
1099.508 5.89100000e+03 
1099.005 5.84600000e+03 
1098.502 5.76800000e+03 
1097.998 5.85000000e+03 
1097.495 5.88300000e+03 
1096.992 5.69000000e+03 
1096.489 5.78000000e+03 
1095.986 5.79100000e+03 
1095.483 5.88800000e+03 
1094.980 5.87000000e+03 
1094.477 5.70100000e+03 
1093.973 5.72600000e+03 
1093.470 5.85800000e+03 
1092.967 5.68800000e+03 
1092.464 5.81200000e+03 
1091.961 5.65400000e+03 
1091.458 5.80700000e+03 
1090.955 5.51000000e+03 
1090.452 5.81700000e+03 
1089.948 5.81100000e+03 
1089.445 5.84500000e+03 
1088.942 5.73400000e+03 
1088.439 5.58200000e+03 
1087.936 5.61900000e+03 
1087.433 5.67100000e+03 
1086.930 5.68200000e+03 
1086.427 5.71400000e+03 
1085.923 5.65400000e+03 
1085.420 5.75700000e+03 
1084.917 5.71400000e+03 
1084.414 5.61500000e+03 
1083.911 5.54300000e+03 
1083.408 5.75500000e+03 
1082.905 5.56400000e+03 
1082.402 5.70500000e+03 
1081.898 5.67100000e+03 
1081.395 5.71800000e+03 
1080.892 5.70300000e+03 
1080.389 5.66600000e+03 
1079.886 5.70200000e+03 
1079.383 5.86600000e+03 
1078.880 5.63200000e+03 
1078.377 5.72200000e+03 
1077.873 5.73800000e+03 
1077.370 5.57500000e+03 
1076.867 5.58000000e+03 
1076.364 5.53100000e+03 
1075.861 5.57300000e+03 
1075.358 5.65500000e+03 
1074.855 5.74800000e+03 
1074.352 5.63700000e+03 
1073.848 5.71400000e+03 
1073.345 5.56900000e+03 
1072.842 5.60900000e+03 
1072.339 5.67200000e+03 
1071.836 5.66300000e+03 
1071.333 5.57100000e+03 
1070.830 5.54900000e+03 
1070.327 5.69600000e+03 
1069.823 5.79400000e+03 
1069.320 5.62900000e+03 
1068.817 5.67800000e+03 
1068.314 5.60300000e+03 
1067.811 5.48800000e+03 
1067.308 5.69000000e+03 
1066.805 5.56200000e+03 
1066.302 5.58000000e+03 
1065.798 5.55500000e+03 
1065.295 5.68200000e+03 
1064.792 5.63400000e+03 
1064.289 5.53400000e+03 
1063.786 5.44500000e+03 
1063.283 5.64000000e+03 
1062.780 5.58300000e+03 
1062.277 5.54300000e+03 
1061.773 5.49900000e+03 
1061.270 5.59000000e+03 
1060.767 5.43200000e+03 
1060.264 5.45000000e+03 
1059.761 5.52300000e+03 
1059.258 5.59200000e+03 
1058.755 5.53000000e+03 
1058.252 5.41300000e+03 
1057.748 5.67600000e+03 
1057.245 5.59500000e+03 
1056.742 5.46900000e+03 
1056.239 5.50800000e+03 
1055.736 5.48800000e+03 
1055.233 5.39300000e+03 
1054.730 5.50200000e+03 
1054.227 5.43200000e+03 
1053.723 5.35300000e+03 
1053.220 5.53100000e+03 
1052.717 5.51200000e+03 
1052.214 5.73200000e+03 
1051.711 5.46700000e+03 
1051.208 5.49500000e+03 
1050.705 5.49700000e+03 
1050.202 5.35600000e+03 
1049.698 5.42200000e+03 
1049.195 5.43000000e+03 
1048.692 5.51100000e+03 
1048.189 5.44500000e+03 
1047.686 5.52400000e+03 
1047.183 5.52800000e+03 
1046.680 5.38800000e+03 
1046.177 5.48600000e+03 
1045.673 5.46200000e+03 
1045.170 5.44400000e+03 
1044.667 5.50700000e+03 
1044.164 5.56300000e+03 
1043.661 5.60500000e+03 
1043.158 5.48600000e+03 
1042.655 5.40200000e+03 
1042.152 5.34500000e+03 
1041.648 5.38700000e+03 
1041.145 5.44500000e+03 
1040.642 5.39400000e+03 
1040.139 5.50900000e+03 
1039.636 5.44100000e+03 
1039.133 5.49800000e+03 
1038.630 5.51700000e+03 
1038.127 5.30800000e+03 
1037.623 5.53600000e+03 
1037.120 5.35100000e+03 
1036.617 5.32400000e+03 
1036.114 5.45300000e+03 
1035.611 5.48100000e+03 
1035.108 5.34100000e+03 
1034.605 5.36200000e+03 
1034.102 5.43300000e+03 
1033.598 5.44900000e+03 
1033.095 5.35900000e+03 
1032.592 5.41700000e+03 
1032.089 5.47000000e+03 
1031.586 5.44600000e+03 
1031.083 5.28500000e+03 
1030.580 5.43100000e+03 
1030.077 5.24400000e+03 
1029.573 5.44300000e+03 
1029.070 5.37600000e+03 
1028.567 5.34500000e+03 
1028.064 5.51600000e+03 
1027.561 5.45300000e+03 
1027.058 5.39500000e+03 
1026.555 5.43900000e+03 
1026.052 5.41500000e+03 
1025.548 5.47800000e+03 
1025.045 5.36500000e+03 
1024.542 5.33000000e+03 
1024.039 5.42500000e+03 
1023.536 5.35600000e+03 
1023.033 5.34000000e+03 
1022.530 5.32000000e+03 
1022.027 5.34900000e+03 
1021.523 5.28700000e+03 
1021.020 5.45700000e+03 
1020.517 5.35400000e+03 
1020.014 5.50500000e+03 
1019.511 5.34700000e+03 
1019.008 5.19500000e+03 
1018.505 5.37100000e+03 
1018.002 5.32600000e+03 
1017.498 5.50900000e+03 
1016.995 5.42100000e+03 
1016.492 5.20000000e+03 
1015.989 5.37900000e+03 
1015.486 5.29000000e+03 
1014.983 5.28400000e+03 
1014.480 5.22200000e+03 
1013.977 5.32500000e+03 
1013.473 5.30200000e+03 
1012.970 5.29900000e+03 
1012.467 5.23700000e+03 
1011.964 5.20900000e+03 
1011.461 5.32400000e+03 
1010.958 5.23300000e+03 
1010.455 5.41700000e+03 
1009.952 5.38800000e+03 
1009.448 5.30700000e+03 
1008.945 5.25600000e+03 
1008.442 5.42300000e+03 
1007.939 5.38600000e+03 
1007.436 5.21500000e+03 
1006.933 5.28100000e+03 
1006.430 5.38600000e+03 
1005.927 5.22000000e+03 
1005.423 5.34800000e+03 
1004.920 5.24500000e+03 
1004.417 5.21800000e+03 
1003.914 5.29400000e+03 
1003.411 5.38700000e+03 
1002.908 5.09000000e+03 
1002.405 5.22900000e+03 
1001.902 5.36800000e+03 
1001.398 5.33700000e+03 
1000.895 5.30200000e+03 
1000.392 5.22600000e+03 
999.889  5.09700000e+03 
999.386  5.19900000e+03 
998.883  5.13800000e+03 
998.380  5.22300000e+03 
997.877  5.22700000e+03 
997.373  5.24700000e+03 
996.870  5.10900000e+03 
996.367  5.07500000e+03 
995.864  5.19400000e+03 
995.361  5.22400000e+03 
994.858  5.23000000e+03 
994.355  5.17100000e+03 
993.852  5.23600000e+03 
993.348  5.11500000e+03 
992.845  5.21100000e+03 
992.342  4.89000000e+03 
991.839  5.06300000e+03 
991.336  5.09600000e+03 
990.833  5.12800000e+03 
990.330  5.08600000e+03 
989.827  5.11000000e+03 
989.323  5.09500000e+03 
988.820  5.08100000e+03 
988.317  5.14200000e+03 
987.814  5.25600000e+03 
987.311  5.09300000e+03 
986.808  5.15900000e+03 
986.305  5.05800000e+03 
985.802  5.08900000e+03 
985.298  5.17900000e+03 
984.795  5.09000000e+03 
984.292  5.27500000e+03 
983.789  5.16100000e+03 
983.286  5.20000000e+03 
982.783  5.28000000e+03 
982.280  5.08200000e+03 
981.777  5.09100000e+03 
981.273  5.15400000e+03 
980.770  5.06400000e+03 
980.267  5.08800000e+03 
979.764  4.86700000e+03 
979.261  4.84300000e+03 
978.758  4.83300000e+03 
978.255  4.86900000e+03 
977.752  4.92100000e+03 
977.248  4.66100000e+03 
976.745  4.97800000e+03 
976.242  4.89700000e+03 
975.739  4.88000000e+03 
975.236  4.93700000e+03 
974.733  4.86000000e+03 
974.230  4.79900000e+03 
973.727  4.88700000e+03 
973.223  4.75900000e+03 
972.720  4.79600000e+03 
972.217  4.79700000e+03 
971.714  4.72700000e+03 
971.211  4.54900000e+03 
970.708  4.62200000e+03 
970.205  4.53400000e+03 
969.702  4.59000000e+03 
969.198  4.52300000e+03 
968.695  4.61700000e+03 
968.192  4.56800000e+03 
967.689  4.71700000e+03 
967.186  4.55600000e+03 
966.683  4.49600000e+03 
966.180  4.46200000e+03 
965.677  4.47900000e+03 
965.173  4.53100000e+03 
964.670  4.49400000e+03 
964.167  4.45400000e+03 
963.664  4.67600000e+03 
963.161  4.62400000e+03 
962.658  4.71000000e+03 
962.155  5.04500000e+03 
961.652  5.52000000e+03 
961.148  6.03500000e+03 
960.645  6.63300000e+03 
960.142  6.49900000e+03 
959.639  5.49200000e+03 
959.136  4.72300000e+03 
958.633  4.41100000e+03 
958.130  4.27200000e+03 
957.627  4.24000000e+03 
957.123  4.03500000e+03 
956.620  4.01200000e+03 
956.117  4.12300000e+03 
955.614  4.16000000e+03 
955.111  3.97200000e+03 
954.608  3.97300000e+03 
954.105  3.99100000e+03 
953.602  3.86200000e+03 
953.098  3.86100000e+03 
952.595  3.86000000e+03 
952.092  3.83200000e+03 
951.589  3.72200000e+03 
951.086  3.69800000e+03 
950.583  3.66900000e+03 
950.080  3.50800000e+03 
949.577  3.54200000e+03 
949.073  3.44300000e+03 
948.570  3.50900000e+03 
948.067  3.47200000e+03 
947.564  3.40400000e+03 
947.061  3.56900000e+03 
946.558  3.49300000e+03 
946.055  3.42900000e+03 
945.552  3.49700000e+03 
945.048  3.61900000e+03 
944.545  3.54600000e+03 
944.042  3.48000000e+03 
943.539  3.64700000e+03 
943.036  3.62800000e+03 
942.533  4.15500000e+03 
942.030  4.89900000e+03 
941.527  6.40500000e+03 
941.023  8.49700000e+03 
940.520  9.73800000e+03 
940.017  7.00300000e+03 
939.514  4.32200000e+03 
939.011  3.31400000e+03 
938.508  3.12500000e+03 
938.005  3.05300000e+03 
937.502  2.89300000e+03 
936.998  2.91500000e+03 
936.495  2.82200000e+03 
935.992  2.92700000e+03 
935.489  2.82700000e+03 
934.986  2.88100000e+03 
934.483  2.72100000e+03 
933.980  2.80900000e+03 
933.477  2.87000000e+03 
932.973  2.75800000e+03 
932.470  2.84000000e+03 
931.967  2.72100000e+03 
931.464  2.88400000e+03 
930.961  2.76600000e+03 
930.458  2.80000000e+03 
929.955  2.74500000e+03 
929.452  2.88100000e+03 
928.948  2.79500000e+03 
928.445  2.80000000e+03 
927.942  2.78900000e+03 
927.439  2.85300000e+03 
926.936  2.70800000e+03 
926.433  2.81200000e+03 
925.930  2.82200000e+03 
925.427  2.76500000e+03 
924.923  2.68200000e+03 
924.420  2.84700000e+03 
923.917  2.81500000e+03 
923.414  2.83000000e+03 
922.911  2.77900000e+03 
922.408  2.78500000e+03 
921.905  2.80400000e+03 
921.402  2.76700000e+03 
920.898  2.77700000e+03 
920.395  2.75500000e+03 
919.892  2.80400000e+03 
919.389  2.77100000e+03 
918.886  2.93900000e+03 
918.383  2.75900000e+03 
917.880  2.74700000e+03 
917.377  2.82200000e+03 
916.873  2.80800000e+03 
916.370  2.77200000e+03 
915.867  2.74900000e+03 
915.364  2.70100000e+03 
914.861  2.85200000e+03 
914.358  2.84200000e+03 
913.855  2.75100000e+03 
913.352  2.77300000e+03 
912.848  2.70100000e+03 
912.345  2.88100000e+03 
911.842  2.80300000e+03 
911.339  2.67100000e+03 
910.836  2.78600000e+03 
910.333  2.80800000e+03 
909.830  2.73000000e+03 
909.327  2.82200000e+03 
908.823  2.76300000e+03 
908.320  2.85500000e+03 
907.817  2.77900000e+03 
907.314  2.81800000e+03 
906.811  2.83900000e+03 
906.308  2.78400000e+03 
905.805  2.76600000e+03 
905.302  2.75400000e+03 
904.798  2.74800000e+03 
904.295  2.75200000e+03 
903.792  2.78600000e+03 
903.289  2.73800000e+03 
902.786  2.82800000e+03 
902.283  2.76200000e+03 
901.780  2.74000000e+03 
901.277  2.74200000e+03 
900.773  2.76700000e+03 
900.270  2.73100000e+03 
899.767  2.81300000e+03 
899.264  2.82000000e+03 
898.761  2.89200000e+03 
898.258  2.71200000e+03 
897.755  2.84700000e+03 
897.252  2.68100000e+03 
896.748  2.69500000e+03 
896.245  2.79100000e+03 
895.742  2.77400000e+03 
895.239  2.75000000e+03 
894.736  2.70500000e+03 
894.233  2.72700000e+03 
893.730  2.82200000e+03 
893.227  2.76200000e+03 
892.723  2.71200000e+03 
892.220  2.76400000e+03 
891.717  2.74300000e+03 
891.214  2.79700000e+03 
890.711  2.78700000e+03 
890.208  2.73600000e+03 
889.705  2.77400000e+03 
889.202  2.78900000e+03 
888.698  2.79800000e+03 
888.195  2.86200000e+03 
887.692  2.71400000e+03 
887.189  2.78300000e+03 
886.686  2.73000000e+03 
886.183  2.70600000e+03 
885.680  2.70600000e+03 
885.177  2.88000000e+03 
884.673  2.84800000e+03 
884.170  2.75000000e+03 
883.667  2.84600000e+03 
883.164  2.81100000e+03 
882.661  2.78300000e+03 
882.158  2.72700000e+03 
881.655  2.71700000e+03 
881.152  2.69700000e+03 
880.648  2.88600000e+03 
880.145  2.74700000e+03 
879.642  2.72300000e+03 
879.139  2.73100000e+03 
878.636  2.78900000e+03 
878.133  2.75800000e+03 
877.630  2.76600000e+03 
877.127  2.86300000e+03 
876.623  2.77200000e+03 
876.120  2.84800000e+03 
875.617  2.72100000e+03 
875.114  2.77500000e+03 
874.611  2.78000000e+03 
874.108  2.72400000e+03 
873.605  2.76200000e+03 
873.102  2.81500000e+03 
872.598  2.80400000e+03 
872.095  2.75800000e+03 
871.592  2.81800000e+03 
871.089  2.71500000e+03 
870.586  2.85500000e+03 
870.083  2.85300000e+03 
869.580  2.68300000e+03 
869.077  2.77600000e+03 
868.573  2.73300000e+03 
868.070  2.70400000e+03 
867.567  2.76200000e+03 
867.064  2.79700000e+03 
866.561  2.79400000e+03 
866.058  2.72900000e+03 
865.555  2.72800000e+03 
865.052  2.78900000e+03 
864.548  2.82700000e+03 
864.045  2.81100000e+03 
863.542  2.77600000e+03 
863.039  2.73800000e+03 
862.536  2.82800000e+03 
862.033  2.72500000e+03 
861.530  2.82000000e+03 
861.027  2.78100000e+03 
860.523  2.79300000e+03 
860.020  2.77400000e+03 
859.517  2.73700000e+03 
859.014  2.78600000e+03 
858.511  2.81600000e+03 
858.008  2.71100000e+03 
857.505  2.73600000e+03 
857.002  2.78000000e+03 
856.498  2.78700000e+03 
855.995  2.74300000e+03 
855.492  2.78300000e+03 
854.989  2.80100000e+03 
854.486  2.86900000e+03 
853.983  2.72900000e+03 
853.480  2.74100000e+03 
852.977  2.73400000e+03 
852.473  2.77400000e+03 
851.970  2.72000000e+03 
851.467  2.79700000e+03 
850.964  2.79900000e+03 
850.461  2.80700000e+03 
849.958  2.75000000e+03 
849.455  2.76700000e+03 
848.952  2.77800000e+03 
848.448  2.74000000e+03 
847.945  2.75800000e+03 
847.442  2.73800000e+03 
846.939  2.81200000e+03 
846.436  2.70200000e+03 
845.933  2.81100000e+03 
845.430  2.82700000e+03 
844.927  2.83400000e+03 
844.423  2.76100000e+03 
843.920  2.82700000e+03 
843.417  2.72200000e+03 
842.914  2.68700000e+03 
842.411  2.74000000e+03 
841.908  2.83100000e+03 
841.405  2.73300000e+03 
840.902  2.78100000e+03 
840.398  2.87200000e+03 
839.895  2.81700000e+03 
839.392  2.76700000e+03 
838.889  2.82700000e+03 
838.386  2.72900000e+03 
837.883  2.82000000e+03 
837.380  2.81200000e+03 
836.877  2.75900000e+03 
836.373  2.69700000e+03 
835.870  2.82800000e+03 
835.367  2.80200000e+03 
834.864  2.76200000e+03 
834.361  2.66400000e+03 
833.858  2.91400000e+03 
833.355  2.81900000e+03 
832.852  2.74000000e+03 
832.348  2.73200000e+03 
831.845  2.88500000e+03 
831.342  2.78100000e+03 
830.839  2.76900000e+03 
830.336  2.69800000e+03 
829.833  2.82200000e+03 
829.330  2.75000000e+03 
828.827  2.77700000e+03 
828.323  2.78600000e+03 
827.820  2.82900000e+03 
827.317  2.87200000e+03 
826.814  2.78900000e+03 
826.311  2.70600000e+03 
825.808  2.80700000e+03 
825.305  2.72200000e+03 
824.802  2.70900000e+03 
824.298  2.87000000e+03 
823.795  2.81200000e+03 
823.292  2.75600000e+03 
822.789  2.73500000e+03 
822.286  2.77200000e+03 
821.783  2.79100000e+03 
821.280  2.74600000e+03 
820.777  2.76700000e+03 
820.273  2.84200000e+03 
819.770  2.74500000e+03 
819.267  2.72900000e+03 
818.764  2.79700000e+03 
818.261  2.71800000e+03 
817.758  2.89900000e+03 
817.255  2.76600000e+03 
816.752  2.84200000e+03 
816.248  2.72200000e+03 
815.745  2.74300000e+03 
815.242  2.76300000e+03 
814.739  2.76800000e+03 
814.236  2.76800000e+03 
813.733  2.80700000e+03 
813.230  2.78200000e+03 
812.727  2.80000000e+03 
812.223  2.79100000e+03 
811.720  2.82600000e+03 
811.217  2.79700000e+03 
810.714  2.77200000e+03 
810.211  2.80400000e+03 
809.708  2.81500000e+03 
809.205  2.73600000e+03 
808.702  2.77700000e+03 
808.198  2.80500000e+03 
807.695  2.81500000e+03 
807.192  2.81500000e+03 
806.689  2.78000000e+03 
806.186  2.74100000e+03 
805.683  2.82300000e+03 
805.180  2.79300000e+03 
804.677  2.75900000e+03 
804.173  2.79500000e+03 
803.670  2.78900000e+03 
803.167  2.86000000e+03 
802.664  2.83200000e+03 
802.161  2.80100000e+03 
801.658  2.80900000e+03 
801.155  2.75100000e+03 
800.652  2.74500000e+03 
800.148  2.75500000e+03 
799.645  2.86200000e+03 
799.142  2.84000000e+03 
798.639  2.82900000e+03 
798.136  2.76100000e+03 
797.633  2.77200000e+03 
797.130  2.78500000e+03 
796.627  2.80900000e+03 
796.123  2.82800000e+03 
795.620  2.84500000e+03 
795.117  2.76600000e+03 
794.614  2.87300000e+03 
794.111  2.83900000e+03 
793.608  2.67800000e+03 
793.105  2.75600000e+03 
792.602  2.83000000e+03 
792.098  2.80500000e+03 
791.595  2.81100000e+03 
791.092  2.79100000e+03 
790.589  2.83800000e+03 
790.086  2.78100000e+03 
789.583  2.87200000e+03 
789.080  2.74100000e+03 
788.577  2.75400000e+03 
788.073  2.80500000e+03 
787.570  2.80000000e+03 
787.067  2.84500000e+03 
786.564  2.75100000e+03 
786.061  2.79100000e+03 
785.558  2.72300000e+03 
785.055  2.81200000e+03 
784.552  2.77300000e+03 
784.048  2.79800000e+03 
783.545  2.68200000e+03 
783.042  2.88200000e+03 
782.539  2.83500000e+03 
782.036  2.77700000e+03 
781.533  2.79200000e+03 
781.030  2.89100000e+03 
780.527  2.80800000e+03 
780.023  2.81700000e+03 
779.520  2.82600000e+03 
779.017  2.87500000e+03 
778.514  2.77100000e+03 
778.011  2.84400000e+03 
777.508  2.81300000e+03 
