EXPERIMENT FILE
Version = 2

[ Experiment Parameters ]
Experiment Description= <none> 
Number_of_Regions_in_Experiment= 1 

Original_File_name= C:\alexesca\data\0201Theta0.xps 
Instrument= HP ESCA West
Date= 02-01-2013
Time=  13:39:41

[ Layer Parameters ]
Layer_Type= XPS

[ Region 1 Parameters ]
Region_Description = Au 4f Dithered 94eV Center 9.2eV Width
BEcenter(eV) = 94.000000
BEwidth(eV) = 9.200000
BEstep(eV) = 0.035937
Dwell_Time(sec) = 1.000000
N_o_scans = 1  
N_o_Channels = 256  
Scan_mode = 0  (DITHERED)

[ L= 1 R= 1 ]
BEcenter= 94.000  
BEwidth= -9.164  
Excitation= 1486.600
Time_p_channel= 256.000 
Size= 256
98.582   9.48000000e+02 
98.546   9.37000000e+02 
98.510   9.58000000e+02 
98.474   8.75000000e+02 
98.438   9.69000000e+02 
98.402   9.58000000e+02 
98.366   9.97000000e+02 
98.330   9.50000000e+02 
98.295   9.23000000e+02 
98.259   9.67000000e+02 
98.223   9.72000000e+02 
98.187   9.24000000e+02 
98.151   9.49000000e+02 
98.115   9.56000000e+02 
98.079   9.39000000e+02 
98.043   1.01100000e+03 
98.007   1.01400000e+03 
97.971   9.67000000e+02 
97.935   9.49000000e+02 
97.899   9.79000000e+02 
97.863   1.01200000e+03 
97.827   1.01100000e+03 
97.791   9.95000000e+02 
97.755   9.45000000e+02 
97.720   1.02100000e+03 
97.684   1.01000000e+03 
97.648   1.03600000e+03 
97.612   1.00000000e+03 
97.576   1.04400000e+03 
97.540   1.03300000e+03 
97.504   1.09800000e+03 
97.468   1.07800000e+03 
97.432   1.07900000e+03 
97.396   1.09100000e+03 
97.360   1.01900000e+03 
97.324   1.13400000e+03 
97.288   1.15200000e+03 
97.252   1.19900000e+03 
97.216   1.17100000e+03 
97.180   1.20200000e+03 
97.145   1.25000000e+03 
97.109   1.29200000e+03 
97.073   1.35200000e+03 
97.037   1.28400000e+03 
97.001   1.37300000e+03 
96.965   1.43200000e+03 
96.929   1.44400000e+03 
96.893   1.49300000e+03 
96.857   1.52700000e+03 
96.821   1.52900000e+03 
96.785   1.61200000e+03 
96.749   1.63900000e+03 
96.713   1.74900000e+03 
96.677   1.79300000e+03 
96.641   1.83000000e+03 
96.605   1.93500000e+03 
96.570   1.93900000e+03 
96.534   2.03600000e+03 
96.498   2.14700000e+03 
96.462   2.27500000e+03 
96.426   2.28500000e+03 
96.390   2.47900000e+03 
96.354   2.60900000e+03 
96.318   2.66900000e+03 
96.282   2.77700000e+03 
96.246   2.99800000e+03 
96.210   3.04100000e+03 
96.174   3.37000000e+03 
96.138   3.38500000e+03 
96.102   3.63200000e+03 
96.066   3.67000000e+03 
96.030   3.79200000e+03 
95.995   4.03500000e+03 
95.959   4.30200000e+03 
95.923   4.48900000e+03 
95.887   4.62000000e+03 
95.851   4.89200000e+03 
95.815   4.98300000e+03 
95.779   5.21400000e+03 
95.743   5.31400000e+03 
95.707   5.57500000e+03 
95.671   5.76600000e+03 
95.635   5.90100000e+03 
95.599   5.78700000e+03 
95.563   6.00900000e+03 
95.527   5.88000000e+03 
95.491   5.98700000e+03 
95.455   5.90900000e+03 
95.420   5.90100000e+03 
95.384   5.48300000e+03 
95.348   5.38500000e+03 
95.312   5.23500000e+03 
95.276   4.80500000e+03 
95.240   4.69500000e+03 
95.204   4.47600000e+03 
95.168   4.14700000e+03 
95.132   3.97000000e+03 
95.096   3.63000000e+03 
95.060   3.27500000e+03 
95.024   3.07600000e+03 
94.988   2.83200000e+03 
94.952   2.68700000e+03 
94.916   2.49300000e+03 
94.880   2.30100000e+03 
94.845   2.10200000e+03 
94.809   1.84700000e+03 
94.773   1.72600000e+03 
94.737   1.71000000e+03 
94.701   1.60100000e+03 
94.665   1.51600000e+03 
94.629   1.46700000e+03 
94.593   1.35000000e+03 
94.557   1.36400000e+03 
94.521   1.34900000e+03 
94.485   1.23000000e+03 
94.449   1.19600000e+03 
94.413   1.20000000e+03 
94.377   1.15400000e+03 
94.341   1.14300000e+03 
94.305   1.11800000e+03 
94.270   1.13400000e+03 
94.234   9.90000000e+02 
94.198   1.01700000e+03 
94.162   1.03500000e+03 
94.126   9.55000000e+02 
94.090   1.00300000e+03 
94.054   1.04200000e+03 
94.018   1.02700000e+03 
93.982   1.05200000e+03 
93.946   1.03600000e+03 
93.910   1.01800000e+03 
93.874   9.58000000e+02 
93.838   1.01400000e+03 
93.802   1.06000000e+03 
93.766   1.02200000e+03 
93.730   1.01800000e+03 
93.695   1.06400000e+03 
93.659   1.04800000e+03 
93.623   1.04200000e+03 
93.587   1.05300000e+03 
93.551   1.05400000e+03 
93.515   1.11600000e+03 
93.479   1.09700000e+03 
93.443   1.18500000e+03 
93.407   1.16900000e+03 
93.371   1.19200000e+03 
93.335   1.34000000e+03 
93.299   1.28300000e+03 
93.263   1.33700000e+03 
93.227   1.43600000e+03 
93.191   1.35900000e+03 
93.155   1.50500000e+03 
93.120   1.58300000e+03 
93.084   1.51600000e+03 
93.048   1.67300000e+03 
93.012   1.75500000e+03 
92.976   1.75500000e+03 
92.940   1.84500000e+03 
92.904   1.96200000e+03 
92.868   2.11300000e+03 
92.832   2.17000000e+03 
92.796   2.18500000e+03 
92.760   2.41900000e+03 
92.724   2.56000000e+03 
92.688   2.62200000e+03 
92.652   2.65200000e+03 
92.616   2.84000000e+03 
92.580   3.03800000e+03 
92.545   3.10400000e+03 
92.509   3.36900000e+03 
92.473   3.50500000e+03 
92.437   3.73800000e+03 
92.401   4.00900000e+03 
92.365   4.10100000e+03 
92.329   4.32200000e+03 
92.293   4.62700000e+03 
92.257   4.85200000e+03 
92.221   5.12800000e+03 
92.185   5.36700000e+03 
92.149   5.56300000e+03 
92.113   5.76100000e+03 
92.077   6.03400000e+03 
92.041   6.38800000e+03 
92.005   6.54700000e+03 
91.970   6.69200000e+03 
91.934   6.80200000e+03 
91.898   6.89000000e+03 
91.862   7.14500000e+03 
91.826   7.25700000e+03 
91.790   7.17200000e+03 
91.754   7.21900000e+03 
91.718   7.07800000e+03 
91.682   6.92800000e+03 
91.646   6.82200000e+03 
91.610   6.53100000e+03 
91.574   6.19300000e+03 
91.538   5.84500000e+03 
91.502   5.46200000e+03 
91.466   5.17200000e+03 
91.430   4.96000000e+03 
91.395   4.42400000e+03 
91.359   4.00500000e+03 
91.323   3.72200000e+03 
91.287   3.28900000e+03 
91.251   2.95900000e+03 
91.215   2.74300000e+03 
91.179   2.51400000e+03 
91.143   2.26300000e+03 
91.107   1.98100000e+03 
91.071   1.85600000e+03 
91.035   1.63000000e+03 
90.999   1.58700000e+03 
90.963   1.37800000e+03 
90.927   1.34100000e+03 
90.891   1.21400000e+03 
90.855   1.08500000e+03 
90.820   1.03600000e+03 
90.784   9.93000000e+02 
90.748   9.25000000e+02 
90.712   8.77000000e+02 
90.676   7.92000000e+02 
90.640   8.41000000e+02 
90.604   7.23000000e+02 
90.568   7.09000000e+02 
90.532   7.46000000e+02 
90.496   7.12000000e+02 
90.460   6.71000000e+02 
90.424   6.41000000e+02 
90.388   6.15000000e+02 
90.352   6.00000000e+02 
90.316   6.46000000e+02 
90.280   5.84000000e+02 
90.245   5.60000000e+02 
90.209   5.53000000e+02 
90.173   5.26000000e+02 
90.137   5.16000000e+02 
90.101   5.42000000e+02 
90.065   4.80000000e+02 
90.029   5.11000000e+02 
89.993   5.35000000e+02 
89.957   5.19000000e+02 
89.921   4.83000000e+02 
89.885   4.96000000e+02 
89.849   4.91000000e+02 
89.813   4.41000000e+02 
89.777   4.74000000e+02 
89.741   4.70000000e+02 
89.705   4.74000000e+02 
89.670   4.75000000e+02 
89.634   4.33000000e+02 
89.598   4.54000000e+02 
89.562   4.52000000e+02 
89.526   4.19000000e+02 
89.490   4.21000000e+02 
89.454   4.32000000e+02 
89.418   4.04000000e+02 

