EXPERIMENT FILE
Version = 2

[ Experiment Parameters ]
Experiment Description= <none> 
Number_of_Regions_in_Experiment= 1 

Original_File_name= C:\alexesca\data\0211Dither.xps 
Instrument= HP ESCA West
Date= 02-11-2013
Time=  12:06:10

[ Layer Parameters ]
Layer_Type= XPS

[ Region 1 Parameters ]
Region_Description = 580Center50Width                   
BEcenter(eV) = 588.000000
BEwidth(eV) = 60.000000
BEstep(eV) = 0.035937
Dwell_Time(sec) = 1.000000
N_o_scans = 1  
N_o_Channels = 1670  
Scan_mode = 0  (DITHERED)

[ L= 1 R= 1 ]
BEcenter= 588.000 
BEwidth= -59.980 
Excitation= 1486.600
Time_p_channel= 256.000 
Size= 1670
617.990  1.95500000e+03 
617.954  1.93700000e+03 
617.918  1.93200000e+03 
617.882  2.03100000e+03 
617.846  1.90900000e+03 
617.810  1.94400000e+03 
617.774  1.97500000e+03 
617.738  1.90000000e+03 
617.702  1.99600000e+03 
617.666  1.96100000e+03 
617.630  1.98200000e+03 
617.595  1.86700000e+03 
617.559  1.99900000e+03 
617.523  1.91500000e+03 
617.487  1.95300000e+03 
617.451  1.99500000e+03 
617.415  1.95500000e+03 
617.379  1.93200000e+03 
617.343  1.95000000e+03 
617.307  1.88500000e+03 
617.271  1.90200000e+03 
617.235  1.90100000e+03 
617.199  2.02400000e+03 
617.163  1.94000000e+03 
617.127  1.95200000e+03 
617.091  1.84800000e+03 
617.055  1.95800000e+03 
617.020  1.97100000e+03 
616.984  1.92600000e+03 
616.948  1.94800000e+03 
616.912  1.95900000e+03 
616.876  1.94200000e+03 
616.840  1.94600000e+03 
616.804  2.04400000e+03 
616.768  1.99200000e+03 
616.732  2.00100000e+03 
616.696  1.97300000e+03 
616.660  1.94700000e+03 
616.624  1.96400000e+03 
616.588  1.95500000e+03 
616.552  1.97400000e+03 
616.516  1.97300000e+03 
616.480  1.95900000e+03 
616.445  1.92400000e+03 
616.409  1.98000000e+03 
616.373  1.86900000e+03 
616.337  1.96400000e+03 
616.301  1.94600000e+03 
616.265  1.92100000e+03 
616.229  1.91100000e+03 
616.193  1.99300000e+03 
616.157  1.97700000e+03 
616.121  1.95400000e+03 
616.085  1.89700000e+03 
616.049  2.00900000e+03 
616.013  1.96900000e+03 
615.977  1.86200000e+03 
615.941  1.91900000e+03 
615.905  2.00200000e+03 
615.870  2.01800000e+03 
615.834  1.96300000e+03 
615.798  1.91000000e+03 
615.762  1.99400000e+03 
615.726  1.90300000e+03 
615.690  1.96000000e+03 
615.654  2.08600000e+03 
615.618  2.02100000e+03 
615.582  1.94300000e+03 
615.546  1.85400000e+03 
615.510  1.93900000e+03 
615.474  1.92600000e+03 
615.438  1.86200000e+03 
615.402  1.94100000e+03 
615.366  1.97100000e+03 
615.330  1.96400000e+03 
615.295  1.86300000e+03 
615.259  1.91000000e+03 
615.223  1.93100000e+03 
615.187  1.94900000e+03 
615.151  1.96400000e+03 
615.115  1.90000000e+03 
615.079  1.95100000e+03 
615.043  1.98100000e+03 
615.007  1.99100000e+03 
614.971  1.93700000e+03 
614.935  2.02400000e+03 
614.899  1.88900000e+03 
614.863  1.97500000e+03 
614.827  1.93100000e+03 
614.791  2.01700000e+03 
614.755  1.94400000e+03 
614.720  1.99000000e+03 
614.684  1.94700000e+03 
614.648  1.99300000e+03 
614.612  1.94700000e+03 
614.576  1.93900000e+03 
614.540  1.93800000e+03 
614.504  1.94700000e+03 
614.468  1.95600000e+03 
614.432  1.96600000e+03 
614.396  1.92300000e+03 
614.360  1.98000000e+03 
614.324  1.93000000e+03 
614.288  1.97100000e+03 
614.252  1.94600000e+03 
614.216  2.04300000e+03 
614.180  1.91900000e+03 
614.145  2.00400000e+03 
614.109  1.94200000e+03 
614.073  1.99100000e+03 
614.037  2.00800000e+03 
614.001  2.04500000e+03 
613.965  1.93300000e+03 
613.929  1.92600000e+03 
613.893  1.91800000e+03 
613.857  1.88000000e+03 
613.821  1.95600000e+03 
613.785  1.92100000e+03 
613.749  1.93400000e+03 
613.713  2.01500000e+03 
613.677  2.01000000e+03 
613.641  1.94200000e+03 
613.605  1.99500000e+03 
613.570  1.94700000e+03 
613.534  1.98400000e+03 
613.498  1.96900000e+03 
613.462  1.90700000e+03 
613.426  1.95100000e+03 
613.390  1.97000000e+03 
613.354  1.98700000e+03 
613.318  1.95100000e+03 
613.282  1.94000000e+03 
613.246  1.95300000e+03 
613.210  1.91200000e+03 
613.174  1.90500000e+03 
613.138  1.84300000e+03 
613.102  1.91400000e+03 
613.066  2.00600000e+03 
613.030  1.92900000e+03 
612.995  1.87200000e+03 
612.959  2.01300000e+03 
612.923  1.93300000e+03 
612.887  1.98400000e+03 
612.851  1.98600000e+03 
612.815  2.02700000e+03 
612.779  2.02900000e+03 
612.743  1.98800000e+03 
612.707  1.98000000e+03 
612.671  2.02300000e+03 
612.635  1.92300000e+03 
612.599  1.90900000e+03 
612.563  1.93600000e+03 
612.527  1.92700000e+03 
612.491  1.93700000e+03 
612.455  1.90700000e+03 
612.420  1.93000000e+03 
612.384  1.95500000e+03 
612.348  1.95000000e+03 
612.312  2.00400000e+03 
612.276  1.98000000e+03 
612.240  1.95100000e+03 
612.204  1.88100000e+03 
612.168  1.98400000e+03 
612.132  2.04700000e+03 
612.096  1.97000000e+03 
612.060  1.92600000e+03 
612.024  1.92500000e+03 
611.988  1.91500000e+03 
611.952  1.94700000e+03 
611.916  1.95000000e+03 
611.880  1.96200000e+03 
611.845  1.94800000e+03 
611.809  1.98700000e+03 
611.773  2.08000000e+03 
611.737  1.94200000e+03 
611.701  2.00800000e+03 
611.665  1.93900000e+03 
611.629  1.97000000e+03 
611.593  1.98500000e+03 
611.557  1.94400000e+03 
611.521  1.96100000e+03 
611.485  1.92300000e+03 
611.449  2.03000000e+03 
611.413  1.91100000e+03 
611.377  1.92300000e+03 
611.341  1.94600000e+03 
611.305  1.89900000e+03 
611.270  1.92400000e+03 
611.234  1.94000000e+03 
611.198  1.95300000e+03 
611.162  1.92100000e+03 
611.126  1.87400000e+03 
611.090  1.93400000e+03 
611.054  1.95900000e+03 
611.018  1.96600000e+03 
610.982  1.91800000e+03 
610.946  1.98500000e+03 
610.910  2.04600000e+03 
610.874  1.99400000e+03 
610.838  1.98900000e+03 
610.802  1.92400000e+03 
610.766  1.93700000e+03 
610.730  1.94900000e+03 
610.695  1.90000000e+03 
610.659  1.98500000e+03 
610.623  1.90100000e+03 
610.587  1.95200000e+03 
610.551  1.87000000e+03 
610.515  1.94900000e+03 
610.479  1.94200000e+03 
610.443  1.90000000e+03 
610.407  2.01300000e+03 
610.371  1.96400000e+03 
610.335  2.01900000e+03 
610.299  2.01900000e+03 
610.263  1.99400000e+03 
610.227  1.96900000e+03 
610.191  1.98600000e+03 
610.155  1.92600000e+03 
610.120  1.99600000e+03 
610.084  1.88900000e+03 
610.048  1.92900000e+03 
610.012  1.89900000e+03 
609.976  2.05100000e+03 
609.940  1.94900000e+03 
609.904  1.95700000e+03 
609.868  1.91100000e+03 
609.832  1.98600000e+03 
609.796  1.96500000e+03 
609.760  1.98200000e+03 
609.724  1.99100000e+03 
609.688  1.95300000e+03 
609.652  1.94900000e+03 
609.616  1.90700000e+03 
609.580  1.96700000e+03 
609.545  1.99800000e+03 
609.509  1.97100000e+03 
609.473  1.96300000e+03 
609.437  1.87000000e+03 
609.401  2.08700000e+03 
609.365  1.93200000e+03 
609.329  1.97800000e+03 
609.293  1.91000000e+03 
609.257  1.97300000e+03 
609.221  1.95500000e+03 
609.185  1.98000000e+03 
609.149  1.93600000e+03 
609.113  1.89800000e+03 
609.077  2.00900000e+03 
609.041  1.96300000e+03 
609.005  1.95700000e+03 
608.970  1.95200000e+03 
608.934  1.94000000e+03 
608.898  1.95700000e+03 
608.862  1.99800000e+03 
608.826  1.98700000e+03 
608.790  2.02000000e+03 
608.754  1.97000000e+03 
608.718  1.95500000e+03 
608.682  1.95700000e+03 
608.646  1.89100000e+03 
608.610  1.94200000e+03 
608.574  2.00900000e+03 
608.538  1.96500000e+03 
608.502  1.95600000e+03 
608.466  1.95100000e+03 
608.430  1.92000000e+03 
608.395  1.93100000e+03 
608.359  1.91100000e+03 
608.323  1.96000000e+03 
608.287  2.00900000e+03 
608.251  1.97400000e+03 
608.215  1.92900000e+03 
608.179  1.97600000e+03 
608.143  1.92300000e+03 
608.107  1.98700000e+03 
608.071  1.98300000e+03 
608.035  1.89100000e+03 
607.999  2.01100000e+03 
607.963  1.97200000e+03 
607.927  2.02800000e+03 
607.891  1.85700000e+03 
607.855  1.97000000e+03 
607.820  1.98800000e+03 
607.784  1.95400000e+03 
607.748  1.99300000e+03 
607.712  1.91200000e+03 
607.676  1.94200000e+03 
607.640  1.90000000e+03 
607.604  2.00600000e+03 
607.568  2.00900000e+03 
607.532  1.97700000e+03 
607.496  1.96400000e+03 
607.460  1.98600000e+03 
607.424  1.96400000e+03 
607.388  1.92000000e+03 
607.352  1.95800000e+03 
607.316  1.91700000e+03 
607.280  1.99500000e+03 
607.245  2.03700000e+03 
607.209  1.98400000e+03 
607.173  1.96500000e+03 
607.137  1.91600000e+03 
607.101  2.04600000e+03 
607.065  1.94600000e+03 
607.029  1.92600000e+03 
606.993  1.89800000e+03 
606.957  1.98800000e+03 
606.921  1.94300000e+03 
606.885  1.94200000e+03 
606.849  1.87100000e+03 
606.813  1.90500000e+03 
606.777  1.88100000e+03 
606.741  1.94300000e+03 
606.705  1.96300000e+03 
606.670  1.99200000e+03 
606.634  1.98500000e+03 
606.598  1.95700000e+03 
606.562  2.00100000e+03 
606.526  1.95400000e+03 
606.490  1.98600000e+03 
606.454  1.97700000e+03 
606.418  2.04400000e+03 
606.382  1.90000000e+03 
606.346  2.00200000e+03 
606.310  2.01800000e+03 
606.274  1.94500000e+03 
606.238  1.96300000e+03 
606.202  1.85800000e+03 
606.166  2.03100000e+03 
606.130  1.94400000e+03 
606.095  1.98300000e+03 
606.059  1.94200000e+03 
606.023  1.93100000e+03 
605.987  1.93800000e+03 
605.951  1.98200000e+03 
605.915  1.95500000e+03 
605.879  1.94200000e+03 
605.843  2.00900000e+03 
605.807  1.95600000e+03 
605.771  1.97900000e+03 
605.735  1.92500000e+03 
605.699  2.03000000e+03 
605.663  1.94000000e+03 
605.627  1.95900000e+03 
605.591  1.93600000e+03 
605.555  1.95700000e+03 
605.520  1.95500000e+03 
605.484  1.94900000e+03 
605.448  1.95800000e+03 
605.412  2.02100000e+03 
605.376  1.92800000e+03 
605.340  1.93300000e+03 
605.304  1.92500000e+03 
605.268  2.01100000e+03 
605.232  1.94400000e+03 
605.196  2.00900000e+03 
605.160  1.97300000e+03 
605.124  1.91500000e+03 
605.088  1.86300000e+03 
605.052  1.96300000e+03 
605.016  1.99100000e+03 
604.980  1.97600000e+03 
604.945  1.93800000e+03 
604.909  1.93100000e+03 
604.873  1.95900000e+03 
604.837  1.97200000e+03 
604.801  1.95100000e+03 
604.765  1.93400000e+03 
604.729  2.03600000e+03 
604.693  1.98000000e+03 
604.657  1.97500000e+03 
604.621  1.98100000e+03 
604.585  1.96300000e+03 
604.549  2.01500000e+03 
604.513  2.03000000e+03 
604.477  1.92900000e+03 
604.441  1.99500000e+03 
604.405  1.95000000e+03 
604.370  1.90500000e+03 
604.334  1.91800000e+03 
604.298  1.98200000e+03 
604.262  1.92700000e+03 
604.226  1.93600000e+03 
604.190  1.99200000e+03 
604.154  1.87900000e+03 
604.118  1.93500000e+03 
604.082  1.99300000e+03 
604.046  1.92500000e+03 
604.010  1.98200000e+03 
603.974  1.97800000e+03 
603.938  1.99400000e+03 
603.902  1.94500000e+03 
603.866  1.88700000e+03 
603.830  1.95300000e+03 
603.795  1.89100000e+03 
603.759  1.95500000e+03 
603.723  1.94900000e+03 
603.687  1.83500000e+03 
603.651  1.96100000e+03 
603.615  1.98000000e+03 
603.579  1.95200000e+03 
603.543  1.97100000e+03 
603.507  1.98900000e+03 
603.471  2.06900000e+03 
603.435  1.92500000e+03 
603.399  1.89200000e+03 
603.363  1.95900000e+03 
603.327  2.02500000e+03 
603.291  1.94900000e+03 
603.255  2.00400000e+03 
603.220  1.94300000e+03 
603.184  2.00000000e+03 
603.148  1.98800000e+03 
603.112  1.95900000e+03 
603.076  1.99400000e+03 
603.040  1.97800000e+03 
603.004  1.93500000e+03 
602.968  1.94200000e+03 
602.932  1.93500000e+03 
602.896  1.97300000e+03 
602.860  1.97200000e+03 
602.824  1.96000000e+03 
602.788  1.97100000e+03 
602.752  1.95100000e+03 
602.716  1.95200000e+03 
602.680  1.99500000e+03 
602.645  1.93200000e+03 
602.609  1.93800000e+03 
602.573  1.92600000e+03 
602.537  1.94800000e+03 
602.501  1.96300000e+03 
602.465  1.97500000e+03 
602.429  1.90300000e+03 
602.393  1.99500000e+03 
602.357  1.95600000e+03 
602.321  2.02500000e+03 
602.285  1.95900000e+03 
602.249  2.01700000e+03 
602.213  1.90600000e+03 
602.177  1.96900000e+03 
602.141  1.95700000e+03 
602.105  1.87900000e+03 
602.070  1.84700000e+03 
602.034  1.96700000e+03 
601.998  1.86000000e+03 
601.962  1.93200000e+03 
601.926  1.99500000e+03 
601.890  1.89300000e+03 
601.854  2.01300000e+03 
601.818  1.94000000e+03 
601.782  1.99900000e+03 
601.746  1.91000000e+03 
601.710  1.95500000e+03 
601.674  1.97400000e+03 
601.638  1.85400000e+03 
601.602  1.97800000e+03 
601.566  1.92600000e+03 
601.530  1.96700000e+03 
601.495  1.95800000e+03 
601.459  1.93800000e+03 
601.423  1.94000000e+03 
601.387  2.01800000e+03 
601.351  1.92900000e+03 
601.315  1.99600000e+03 
601.279  1.97000000e+03 
601.243  2.02500000e+03 
601.207  1.94400000e+03 
601.171  1.94900000e+03 
601.135  1.95300000e+03 
601.099  1.89500000e+03 
601.063  1.95700000e+03 
601.027  1.94500000e+03 
600.991  1.94700000e+03 
600.955  1.95600000e+03 
600.920  1.94900000e+03 
600.884  1.95400000e+03 
600.848  1.97900000e+03 
600.812  1.98900000e+03 
600.776  1.95900000e+03 
600.740  1.91900000e+03 
600.704  1.90800000e+03 
600.668  1.96100000e+03 
600.632  2.01400000e+03 
600.596  1.97600000e+03 
600.560  1.98000000e+03 
600.524  2.00800000e+03 
600.488  2.05100000e+03 
600.452  1.91700000e+03 
600.416  2.02100000e+03 
600.380  1.95000000e+03 
600.345  2.00300000e+03 
600.309  1.97500000e+03 
600.273  2.03800000e+03 
600.237  1.98000000e+03 
600.201  1.96600000e+03 
600.165  1.97100000e+03 
600.129  2.04000000e+03 
600.093  2.00700000e+03 
600.057  1.93300000e+03 
600.021  1.94500000e+03 
599.985  2.00800000e+03 
599.949  1.92500000e+03 
599.913  1.86500000e+03 
599.877  1.93500000e+03 
599.841  1.98700000e+03 
599.805  1.91500000e+03 
599.770  1.99300000e+03 
599.734  1.94800000e+03 
599.698  2.02300000e+03 
599.662  1.98000000e+03 
599.626  2.06400000e+03 
599.590  1.92000000e+03 
599.554  1.99700000e+03 
599.518  1.96100000e+03 
599.482  1.98800000e+03 
599.446  1.98300000e+03 
599.410  1.99100000e+03 
599.374  1.91300000e+03 
599.338  1.98500000e+03 
599.302  2.00600000e+03 
599.266  1.98700000e+03 
599.230  1.94500000e+03 
599.195  1.95400000e+03 
599.159  1.89900000e+03 
599.123  1.97300000e+03 
599.087  2.00300000e+03 
599.051  1.95800000e+03 
599.015  1.94000000e+03 
598.979  1.97700000e+03 
598.943  1.89800000e+03 
598.907  1.94400000e+03 
598.871  1.95500000e+03 
598.835  1.97900000e+03 
598.799  2.08900000e+03 
598.763  1.97300000e+03 
598.727  1.93500000e+03 
598.691  1.96100000e+03 
598.655  2.02400000e+03 
598.620  1.92300000e+03 
598.584  1.99100000e+03 
598.548  2.01200000e+03 
598.512  2.07000000e+03 
598.476  2.00100000e+03 
598.440  1.95100000e+03 
598.404  2.04000000e+03 
598.368  2.04600000e+03 
598.332  1.93800000e+03 
598.296  2.00400000e+03 
598.260  1.91900000e+03 
598.224  1.91500000e+03 
598.188  1.95400000e+03 
598.152  1.97000000e+03 
598.116  1.97700000e+03 
598.080  1.99200000e+03 
598.045  1.98000000e+03 
598.009  1.93700000e+03 
597.973  1.95700000e+03 
597.937  1.93200000e+03 
597.901  1.99200000e+03 
597.865  1.95800000e+03 
597.829  1.94200000e+03 
597.793  1.95200000e+03 
597.757  1.91800000e+03 
597.721  1.96200000e+03 
597.685  1.97200000e+03 
597.649  1.95100000e+03 
597.613  1.96400000e+03 
597.577  2.04400000e+03 
597.541  2.00800000e+03 
597.505  1.95000000e+03 
597.470  1.93000000e+03 
597.434  1.97100000e+03 
597.398  1.96200000e+03 
597.362  1.98700000e+03 
597.326  2.02700000e+03 
597.290  1.97700000e+03 
597.254  2.03600000e+03 
597.218  2.00300000e+03 
597.182  2.07100000e+03 
597.146  2.04600000e+03 
597.110  1.98300000e+03 
597.074  1.96800000e+03 
597.038  1.99900000e+03 
597.002  1.89600000e+03 
596.966  2.03400000e+03 
596.930  1.97900000e+03 
596.895  1.93400000e+03 
596.859  1.93000000e+03 
596.823  2.00900000e+03 
596.787  1.93100000e+03 
596.751  1.98900000e+03 
596.715  2.00200000e+03 
596.679  1.98100000e+03 
596.643  1.92000000e+03 
596.607  1.96500000e+03 
596.571  1.98400000e+03 
596.535  1.96300000e+03 
596.499  1.96100000e+03 
596.463  1.97100000e+03 
596.427  2.04500000e+03 
596.391  2.06000000e+03 
596.355  1.98900000e+03 
596.320  1.93800000e+03 
596.284  2.09700000e+03 
596.248  1.95700000e+03 
596.212  2.03300000e+03 
596.176  2.01800000e+03 
596.140  2.02400000e+03 
596.104  1.98700000e+03 
596.068  2.02000000e+03 
596.032  1.99100000e+03 
595.996  1.95700000e+03 
595.960  1.89700000e+03 
595.924  1.97500000e+03 
595.888  1.94600000e+03 
595.852  2.01800000e+03 
595.816  2.00600000e+03 
595.780  1.96400000e+03 
595.745  1.95400000e+03 
595.709  1.99700000e+03 
595.673  1.95500000e+03 
595.637  1.94600000e+03 
595.601  1.95900000e+03 
595.565  2.02000000e+03 
595.529  1.91600000e+03 
595.493  1.99800000e+03 
595.457  1.99900000e+03 
595.421  1.99100000e+03 
595.385  1.91800000e+03 
595.349  1.96700000e+03 
595.313  1.97300000e+03 
595.277  1.94200000e+03 
595.241  2.00300000e+03 
595.205  1.96900000e+03 
595.170  2.01600000e+03 
595.134  1.93100000e+03 
595.098  1.97200000e+03 
595.062  1.97300000e+03 
595.026  1.90700000e+03 
594.990  1.97700000e+03 
594.954  2.02500000e+03 
594.918  2.00100000e+03 
594.882  1.86000000e+03 
594.846  2.01200000e+03 
594.810  1.93200000e+03 
594.774  1.99800000e+03 
594.738  1.98800000e+03 
594.702  1.98100000e+03 
594.666  1.96800000e+03 
594.630  1.98800000e+03 
594.595  2.00100000e+03 
594.559  1.99000000e+03 
594.523  1.95200000e+03 
594.487  1.96600000e+03 
594.451  1.93500000e+03 
594.415  2.01800000e+03 
594.379  2.01900000e+03 
594.343  1.95300000e+03 
594.307  2.02600000e+03 
594.271  1.90400000e+03 
594.235  1.96500000e+03 
594.199  1.92100000e+03 
594.163  1.96500000e+03 
594.127  1.93400000e+03 
594.091  2.03100000e+03 
594.055  1.93200000e+03 
594.020  1.95400000e+03 
593.984  1.98800000e+03 
593.948  2.05800000e+03 
593.912  2.00000000e+03 
593.876  1.94700000e+03 
593.840  1.90500000e+03 
593.804  2.08300000e+03 
593.768  2.02000000e+03 
593.732  1.93100000e+03 
593.696  1.94900000e+03 
593.660  1.97700000e+03 
593.624  1.93500000e+03 
593.588  1.92100000e+03 
593.552  1.92900000e+03 
593.516  1.99800000e+03 
593.480  2.02000000e+03 
593.445  2.00300000e+03 
593.409  2.06100000e+03 
593.373  1.99900000e+03 
593.337  1.97200000e+03 
593.301  2.01400000e+03 
593.265  1.88300000e+03 
593.229  1.92400000e+03 
593.193  1.97900000e+03 
593.157  1.96200000e+03 
593.121  1.93300000e+03 
593.085  2.03500000e+03 
593.049  1.96000000e+03 
593.013  2.00300000e+03 
592.977  1.95600000e+03 
592.941  2.02500000e+03 
592.905  2.02100000e+03 
592.870  1.94000000e+03 
592.834  1.97100000e+03 
592.798  2.00500000e+03 
592.762  1.95100000e+03 
592.726  1.92500000e+03 
592.690  2.03800000e+03 
592.654  1.92800000e+03 
592.618  1.95800000e+03 
592.582  2.01800000e+03 
592.546  1.98100000e+03 
592.510  1.95000000e+03 
592.474  2.01200000e+03 
592.438  1.97100000e+03 
592.402  2.02800000e+03 
592.366  1.95200000e+03 
592.330  1.88600000e+03 
592.295  1.96400000e+03 
592.259  1.94400000e+03 
592.223  1.94300000e+03 
592.187  1.98100000e+03 
592.151  1.90000000e+03 
592.115  2.00000000e+03 
592.079  1.92000000e+03 
592.043  1.96700000e+03 
592.007  1.98900000e+03 
591.971  2.02200000e+03 
591.935  1.92700000e+03 
591.899  2.01000000e+03 
591.863  1.98700000e+03 
591.827  1.94500000e+03 
591.791  1.92200000e+03 
591.755  2.01600000e+03 
591.720  2.12100000e+03 
591.684  1.96400000e+03 
591.648  1.98400000e+03 
591.612  1.95200000e+03 
591.576  1.92500000e+03 
591.540  1.96400000e+03 
591.504  2.00200000e+03 
591.468  1.98000000e+03 
591.432  1.94800000e+03 
591.396  1.88300000e+03 
591.360  1.89900000e+03 
591.324  2.01400000e+03 
