EXPERIMENT FILE
Version = 2

[ Experiment Parameters ]
Experiment Description= <none> 
Number_of_Regions_in_Experiment= 1 

Original_File_name= C:\alexesca\data\0228BadSweep.xps 
Instrument= HP ESCA West
Date= 02-28-2013
Time=  13:15:32

[ Layer Parameters ]
Layer_Type= XPS

[ Region 1 Parameters ]
Region_Description = 550to800eV                         
BEcenter(eV) = 675.000000
BEwidth(eV) = 250.000000
BEstep(eV) = 0.035937
Dwell_Time(sec) = 1.000000
N_o_scans = 1  
N_o_Channels = 6957  
Scan_mode = 0  (DITHERED)

[ L= 1 R= 1 ]
BEcenter= 675.000 
BEwidth= -249.981
Excitation= 1486.600
Time_p_channel= 256.000 
Size= 6957
799.991  1.43200000e+03 
799.955  1.44900000e+03 
799.919  1.45700000e+03 
799.883  1.49400000e+03 
799.847  1.48300000e+03 
799.811  1.49500000e+03 
799.775  1.52800000e+03 
799.739  1.40600000e+03 
799.703  1.43600000e+03 
799.667  1.49600000e+03 
799.631  1.45100000e+03 
799.595  1.44900000e+03 
799.559  1.43600000e+03 
799.523  1.49800000e+03 
799.488  1.46500000e+03 
799.452  1.44400000e+03 
799.416  1.51500000e+03 
799.380  1.54600000e+03 
799.344  1.47700000e+03 
799.308  1.44800000e+03 
799.272  1.53200000e+03 
799.236  1.48700000e+03 
799.200  1.48600000e+03 
799.164  1.46400000e+03 
799.128  1.49100000e+03 
799.092  1.47900000e+03 
799.056  1.44300000e+03 
799.020  1.45300000e+03 
798.984  1.42800000e+03 
798.948  1.43100000e+03 
798.913  1.47200000e+03 
798.877  1.47800000e+03 
798.841  1.44300000e+03 
798.805  1.47500000e+03 
798.769  1.46000000e+03 
798.733  1.49700000e+03 
798.697  1.44900000e+03 
798.661  1.41100000e+03 
798.625  1.47700000e+03 
798.589  1.42900000e+03 
798.553  1.47600000e+03 
798.517  1.50900000e+03 
798.481  1.50700000e+03 
798.445  1.45200000e+03 
798.409  1.40400000e+03 
798.373  1.43600000e+03 
798.337  1.47700000e+03 
798.302  1.53900000e+03 
798.266  1.42900000e+03 
798.230  1.45600000e+03 
798.194  1.47800000e+03 
798.158  1.40200000e+03 
798.122  1.48700000e+03 
798.086  1.48700000e+03 
798.050  1.44100000e+03 
798.014  1.44500000e+03 
797.978  1.42700000e+03 
797.942  1.45700000e+03 
797.906  1.45000000e+03 
797.870  1.52000000e+03 
797.834  1.46100000e+03 
797.798  1.48500000e+03 
797.763  1.47100000e+03 
797.727  1.48400000e+03 
797.691  1.52500000e+03 
797.655  1.38300000e+03 
797.619  1.40600000e+03 
797.583  1.46700000e+03 
797.547  1.45200000e+03 
797.511  1.50900000e+03 
797.475  1.43900000e+03 
797.439  1.50000000e+03 
797.403  1.49500000e+03 
797.367  1.46900000e+03 
797.331  1.48000000e+03 
797.295  1.48600000e+03 
797.259  1.41400000e+03 
797.223  1.47900000e+03 
797.188  1.46800000e+03 
797.152  1.41800000e+03 
797.116  1.48600000e+03 
797.080  1.50300000e+03 
797.044  1.48900000e+03 
797.008  1.48600000e+03 
796.972  1.52200000e+03 
796.936  1.45700000e+03 
796.900  1.47700000e+03 
796.864  1.50200000e+03 
796.828  1.47600000e+03 
796.792  1.49000000e+03 
796.756  1.46600000e+03 
796.720  1.49600000e+03 
796.684  1.45600000e+03 
796.648  1.44100000e+03 
796.613  1.51100000e+03 
796.577  1.43900000e+03 
796.541  1.53400000e+03 
796.505  1.42900000e+03 
796.469  1.47200000e+03 
796.433  1.44600000e+03 
796.397  1.48900000e+03 
796.361  1.53000000e+03 
796.325  1.50300000e+03 
796.289  1.52200000e+03 
796.253  1.42800000e+03 
796.217  1.45200000e+03 
796.181  1.49700000e+03 
796.145  1.44100000e+03 
796.109  1.48500000e+03 
796.073  1.44100000e+03 
796.038  1.53900000e+03 
796.002  1.52200000e+03 
795.966  1.45000000e+03 
795.930  1.45100000e+03 
795.894  1.46600000e+03 
795.858  1.48200000e+03 
795.822  1.49200000e+03 
795.786  1.48400000e+03 
795.750  1.49900000e+03 
795.714  1.47500000e+03 
795.678  1.47200000e+03 
795.642  1.46000000e+03 
795.606  1.42100000e+03 
795.570  1.43700000e+03 
795.534  1.48100000e+03 
795.498  1.41400000e+03 
795.462  1.49500000e+03 
795.427  1.51200000e+03 
795.391  1.50200000e+03 
795.355  1.44800000e+03 
795.319  1.45300000e+03 
795.283  1.48200000e+03 
795.247  1.46200000e+03 
795.211  1.47600000e+03 
795.175  1.40900000e+03 
795.139  1.52900000e+03 
795.103  1.44300000e+03 
795.067  1.46400000e+03 
795.031  1.46900000e+03 
794.995  1.45200000e+03 
794.959  1.46700000e+03 
794.923  1.48900000e+03 
794.888  1.51700000e+03 
794.852  1.43800000e+03 
794.816  1.42900000e+03 
794.780  1.47600000e+03 
794.744  1.42600000e+03 
794.708  1.54000000e+03 
794.672  1.52700000e+03 
794.636  1.46200000e+03 
794.600  1.44200000e+03 
794.564  1.49000000e+03 
794.528  1.43700000e+03 
794.492  1.47900000e+03 
794.456  1.47400000e+03 
794.420  1.49700000e+03 
794.384  1.42800000e+03 
794.348  1.52100000e+03 
794.312  1.52200000e+03 
794.277  1.49600000e+03 
794.241  1.47500000e+03 
794.205  1.46600000e+03 
794.169  1.51000000e+03 
794.133  1.47500000e+03 
794.097  1.45000000e+03 
794.061  1.50000000e+03 
794.025  1.49700000e+03 
793.989  1.42900000e+03 
793.953  1.45200000e+03 
793.917  1.49500000e+03 
793.881  1.53700000e+03 
793.845  1.46300000e+03 
793.809  1.52300000e+03 
793.773  1.47300000e+03 
793.738  1.48300000e+03 
793.702  1.51300000e+03 
793.666  1.51500000e+03 
793.630  1.51500000e+03 
793.594  1.45400000e+03 
793.558  1.51200000e+03 
793.522  1.49900000e+03 
793.486  1.55300000e+03 
793.450  1.50000000e+03 
793.414  1.43500000e+03 
793.378  1.49600000e+03 
793.342  1.39800000e+03 
793.306  1.51900000e+03 
793.270  1.46100000e+03 
793.234  1.45400000e+03 
793.198  1.50900000e+03 
793.163  1.51500000e+03 
793.127  1.51600000e+03 
793.091  1.51900000e+03 
793.055  1.37300000e+03 
793.019  1.51100000e+03 
792.983  1.46100000e+03 
792.947  1.47400000e+03 
792.911  1.43800000e+03 
792.875  1.49200000e+03 
792.839  1.45000000e+03 
792.803  1.50300000e+03 
792.767  1.40800000e+03 
792.731  1.45500000e+03 
792.695  1.48900000e+03 
792.659  1.60700000e+03 
792.623  1.49300000e+03 
792.587  1.45900000e+03 
792.552  1.53300000e+03 
792.516  1.39700000e+03 
792.480  1.39800000e+03 
792.444  1.48300000e+03 
792.408  1.45300000e+03 
792.372  1.45500000e+03 
792.336  1.49700000e+03 
792.300  1.50100000e+03 
792.264  1.48200000e+03 
792.228  1.47800000e+03 
792.192  1.53100000e+03 
792.156  1.49500000e+03 
792.120  1.50200000e+03 
792.084  1.48800000e+03 
792.048  1.43900000e+03 
792.013  1.37300000e+03 
791.977  1.49600000e+03 
791.941  1.57100000e+03 
791.905  1.43000000e+03 
791.869  1.40900000e+03 
791.833  1.50700000e+03 
791.797  1.43500000e+03 
791.761  1.46600000e+03 
791.725  1.43200000e+03 
791.689  1.47800000e+03 
791.653  1.41000000e+03 
791.617  1.47400000e+03 
791.581  1.45700000e+03 
791.545  1.46500000e+03 
791.509  1.59600000e+03 
791.473  1.47900000e+03 
791.438  1.50100000e+03 
791.402  1.41600000e+03 
791.366  1.47700000e+03 
791.330  1.48000000e+03 
791.294  1.48200000e+03 
791.258  1.50700000e+03 
791.222  1.41600000e+03 
791.186  1.53000000e+03 
791.150  1.50100000e+03 
791.114  1.41800000e+03 
791.078  1.43800000e+03 
791.042  1.50500000e+03 
791.006  1.55800000e+03 
790.970  1.53000000e+03 
790.934  1.49900000e+03 
790.898  1.50100000e+03 
790.863  1.48100000e+03 
790.827  1.46900000e+03 
790.791  1.45300000e+03 
790.755  1.56400000e+03 
790.719  1.44000000e+03 
790.683  1.57000000e+03 
790.647  1.51900000e+03 
790.611  1.47500000e+03 
790.575  1.48800000e+03 
790.539  1.48600000e+03 
790.503  1.56700000e+03 
790.467  1.52700000e+03 
790.431  1.50800000e+03 
790.395  1.45300000e+03 
790.359  1.53500000e+03 
790.323  1.48200000e+03 
790.288  1.49300000e+03 
790.252  1.44500000e+03 
790.216  1.54400000e+03 
790.180  1.51400000e+03 
790.144  1.55000000e+03 
790.108  1.50200000e+03 
790.072  1.39400000e+03 
790.036  1.41800000e+03 
790.000  1.52400000e+03 
789.964  1.49200000e+03 
789.928  1.51800000e+03 
789.892  1.58200000e+03 
789.856  1.53600000e+03 
789.820  1.51800000e+03 
789.784  1.48900000e+03 
789.748  1.45200000e+03 
789.712  1.51700000e+03 
789.677  1.50400000e+03 
789.641  1.46500000e+03 
789.605  1.41700000e+03 
789.569  1.49300000e+03 
789.533  1.51400000e+03 
789.497  1.52400000e+03 
789.461  1.46700000e+03 
789.425  1.45800000e+03 
789.389  1.50900000e+03 
789.353  1.54400000e+03 
789.317  1.56700000e+03 
789.281  1.51700000e+03 
789.245  1.52100000e+03 
789.209  1.52000000e+03 
789.173  1.47600000e+03 
789.138  1.51000000e+03 
789.102  1.49500000e+03 
789.066  1.43100000e+03 
789.030  1.46900000e+03 
788.994  1.41400000e+03 
788.958  1.46500000e+03 
788.922  1.51700000e+03 
788.886  1.45100000e+03 
788.850  1.44000000e+03 
788.814  1.51600000e+03 
788.778  1.48900000e+03 
788.742  1.45800000e+03 
788.706  1.54100000e+03 
788.670  1.54500000e+03 
788.634  1.48600000e+03 
788.598  1.53200000e+03 
788.562  1.46800000e+03 
788.527  1.48400000e+03 
788.491  1.43300000e+03 
788.455  1.53200000e+03 
788.419  1.52100000e+03 
788.383  1.48100000e+03 
788.347  1.54300000e+03 
788.311  1.44200000e+03 
788.275  1.48700000e+03 
788.239  1.45900000e+03 
788.203  1.50300000e+03 
788.167  1.49100000e+03 
788.131  1.50100000e+03 
788.095  1.56900000e+03 
788.059  1.53500000e+03 
788.023  1.51300000e+03 
787.988  1.53100000e+03 
787.952  1.42800000e+03 
787.916  1.45400000e+03 
787.880  1.47900000e+03 
787.844  1.52700000e+03 
787.808  1.43600000e+03 
787.772  1.43300000e+03 
787.736  1.51200000e+03 
787.700  1.53700000e+03 
787.664  1.46100000e+03 
787.628  1.52300000e+03 
787.592  1.45600000e+03 
787.556  1.46700000e+03 
787.520  1.49300000e+03 
787.484  1.52800000e+03 
787.448  1.53800000e+03 
787.413  1.53600000e+03 
787.377  1.43500000e+03 
787.341  1.57100000e+03 
787.305  1.55100000e+03 
787.269  1.50200000e+03 
787.233  1.52600000e+03 
787.197  1.50000000e+03 
787.161  1.51600000e+03 
787.125  1.43200000e+03 
787.089  1.49800000e+03 
787.053  1.53600000e+03 
787.017  1.47600000e+03 
786.981  1.43200000e+03 
786.945  1.50700000e+03 
786.909  1.49900000e+03 
786.873  1.53700000e+03 
786.837  1.53000000e+03 
786.802  1.49700000e+03 
786.766  1.54500000e+03 
786.730  1.51500000e+03 
786.694  1.54600000e+03 
786.658  1.45300000e+03 
786.622  1.49800000e+03 
786.586  1.54500000e+03 
786.550  1.53900000e+03 
786.514  1.56200000e+03 
786.478  1.46500000e+03 
786.442  1.43200000e+03 
786.406  1.56000000e+03 
786.370  1.53600000e+03 
786.334  1.46900000e+03 
786.298  1.47000000e+03 
786.263  1.50200000e+03 
786.227  1.51800000e+03 
786.191  1.51300000e+03 
786.155  1.43100000e+03 
786.119  1.48300000e+03 
786.083  1.42900000e+03 
786.047  1.54800000e+03 
786.011  1.47000000e+03 
785.975  1.53300000e+03 
785.939  1.52500000e+03 
785.903  1.48400000e+03 
785.867  1.51200000e+03 
785.831  1.44400000e+03 
785.795  1.53200000e+03 
785.759  1.51100000e+03 
785.723  1.52500000e+03 
785.688  1.50500000e+03 
785.652  1.45000000e+03 
785.616  1.53900000e+03 
785.580  1.42800000e+03 
785.544  1.48900000e+03 
785.508  1.56800000e+03 
785.472  1.47500000e+03 
785.436  1.49100000e+03 
785.400  1.50800000e+03 
785.364  1.42200000e+03 
785.328  1.47000000e+03 
785.292  1.46900000e+03 
785.256  1.44500000e+03 
785.220  1.52800000e+03 
785.184  1.51100000e+03 
785.148  1.56100000e+03 
785.113  1.50300000e+03 
785.077  1.43100000e+03 
785.041  1.52100000e+03 
785.005  1.52000000e+03 
784.969  1.49900000e+03 
784.933  1.50000000e+03 
784.897  1.50700000e+03 
784.861  1.54200000e+03 
784.825  1.42600000e+03 
784.789  1.49000000e+03 
784.753  1.45000000e+03 
784.717  1.55500000e+03 
784.681  1.51200000e+03 
784.645  1.54600000e+03 
784.609  1.48900000e+03 
784.573  1.51400000e+03 
784.538  1.53700000e+03 
784.502  1.53400000e+03 
784.466  1.48000000e+03 
784.430  1.50400000e+03 
784.394  1.46800000e+03 
784.358  1.47000000e+03 
784.322  1.52400000e+03 
784.286  1.49900000e+03 
784.250  1.48100000e+03 
784.214  1.53700000e+03 
784.178  1.54000000e+03 
784.142  1.58700000e+03 
784.106  1.50700000e+03 
784.070  1.50900000e+03 
784.034  1.52200000e+03 
783.998  1.45400000e+03 
783.962  1.48900000e+03 
783.927  1.53200000e+03 
783.891  1.50200000e+03 
783.855  1.47200000e+03 
783.819  1.41800000e+03 
783.783  1.56400000e+03 
783.747  1.57800000e+03 
783.711  1.60600000e+03 
783.675  1.49500000e+03 
783.639  1.52800000e+03 
783.603  1.57200000e+03 
783.567  1.46600000e+03 
783.531  1.56300000e+03 
783.495  1.53800000e+03 
783.459  1.55600000e+03 
783.423  1.49500000e+03 
783.388  1.53400000e+03 
783.352  1.51100000e+03 
783.316  1.47700000e+03 
783.280  1.51400000e+03 
783.244  1.47300000e+03 
783.208  1.46800000e+03 
783.172  1.47200000e+03 
783.136  1.50500000e+03 
783.100  1.55500000e+03 
783.064  1.45900000e+03 
783.028  1.52900000e+03 
782.992  1.54000000e+03 
782.956  1.47700000e+03 
782.920  1.58100000e+03 
782.884  1.47900000e+03 
782.848  1.49000000e+03 
782.812  1.48500000e+03 
782.777  1.52100000e+03 
782.741  1.49500000e+03 
782.705  1.52300000e+03 
782.669  1.49400000e+03 
782.633  1.50200000e+03 
782.597  1.56200000e+03 
782.561  1.49300000e+03 
782.525  1.54100000e+03 
782.489  1.47500000e+03 
782.453  1.53000000e+03 
782.417  1.55400000e+03 
782.381  1.59400000e+03 
782.345  1.50600000e+03 
782.309  1.50600000e+03 
782.273  1.48600000e+03 
782.238  1.47300000e+03 
782.202  1.55200000e+03 
782.166  1.55000000e+03 
782.130  1.55300000e+03 
782.094  1.54600000e+03 
782.058  1.48200000e+03 
782.022  1.53800000e+03 
781.986  1.55800000e+03 
781.950  1.47200000e+03 
781.914  1.55800000e+03 
781.878  1.62100000e+03 
781.842  1.54300000e+03 
781.806  1.54900000e+03 
781.770  1.44300000e+03 
781.734  1.56000000e+03 
781.698  1.53300000e+03 
781.663  1.51400000e+03 
781.627  1.59000000e+03 
781.591  1.51900000e+03 
781.555  1.49100000e+03 
781.519  1.52500000e+03 
781.483  1.47600000e+03 
781.447  1.52700000e+03 
781.411  1.45800000e+03 
781.375  1.55500000e+03 
781.339  1.54200000e+03 
781.303  1.52800000e+03 
781.267  1.56500000e+03 
781.231  1.63600000e+03 
781.195  1.51700000e+03 
781.159  1.52100000e+03 
781.123  1.58500000e+03 
781.087  1.52100000e+03 
781.052  1.48700000e+03 
781.016  1.52500000e+03 
780.980  1.56000000e+03 
780.944  1.52400000e+03 
780.908  1.51800000e+03 
780.872  1.53600000e+03 
780.836  1.49700000e+03 
780.800  1.50800000e+03 
780.764  1.51100000e+03 
780.728  1.60400000e+03 
780.692  1.47400000e+03 
780.656  1.50000000e+03 
780.620  1.53300000e+03 
780.584  1.54500000e+03 
780.548  1.56500000e+03 
780.513  1.45300000e+03 
780.477  1.51800000e+03 
780.441  1.56900000e+03 
780.405  1.52700000e+03 
780.369  1.44900000e+03 
780.333  1.44500000e+03 
780.297  1.39900000e+03 
780.261  1.55500000e+03 
780.225  1.50600000e+03 
780.189  1.56300000e+03 
780.153  1.53200000e+03 
780.117  1.50400000e+03 
780.081  1.57800000e+03 
780.045  1.56800000e+03 
780.009  1.49100000e+03 
779.973  1.58600000e+03 
779.938  1.52100000e+03 
779.902  1.41200000e+03 
779.866  1.47800000e+03 
779.830  1.57200000e+03 
779.794  1.49700000e+03 
779.758  1.53700000e+03 
779.722  1.50100000e+03 
779.686  1.54700000e+03 
779.650  1.55400000e+03 
779.614  1.50800000e+03 
779.578  1.58200000e+03 
779.542  1.48000000e+03 
779.506  1.52000000e+03 
779.470  1.56800000e+03 
779.434  1.50900000e+03 
779.398  1.48500000e+03 
779.363  1.61700000e+03 
779.327  1.53400000e+03 
779.291  1.47100000e+03 
779.255  1.52000000e+03 
779.219  1.54300000e+03 
779.183  1.56800000e+03 
779.147  1.62700000e+03 
779.111  1.51500000e+03 
779.075  1.54100000e+03 
779.039  1.58600000e+03 
779.003  1.48800000e+03 
778.967  1.51200000e+03 
778.931  1.51600000e+03 
778.895  1.47400000e+03 
778.859  1.50800000e+03 
778.823  1.51800000e+03 
778.788  1.51100000e+03 
778.752  1.51900000e+03 
778.716  1.57500000e+03 
778.680  1.57800000e+03 
778.644  1.50800000e+03 
778.608  1.56000000e+03 
778.572  1.54600000e+03 
778.536  1.49400000e+03 
778.500  1.50600000e+03 
778.464  1.55100000e+03 
778.428  1.54500000e+03 
778.392  1.52900000e+03 
778.356  1.53000000e+03 
778.320  1.56700000e+03 
778.284  1.47400000e+03 
778.248  1.50200000e+03 
778.212  1.54100000e+03 
778.177  1.57900000e+03 
778.141  1.49500000e+03 
778.105  1.56800000e+03 
778.069  1.49800000e+03 
778.033  1.50000000e+03 
777.997  1.56400000e+03 
777.961  1.54600000e+03 
777.925  1.56300000e+03 
777.889  1.48700000e+03 
777.853  1.51400000e+03 
777.817  1.55300000e+03 
777.781  1.56200000e+03 
777.745  1.60300000e+03 
777.709  1.56400000e+03 
777.673  1.58800000e+03 
777.638  1.55800000e+03 
777.602  1.53900000e+03 
777.566  1.54700000e+03 
777.530  1.54900000e+03 
777.494  1.54600000e+03 
777.458  1.50600000e+03 
777.422  1.56200000e+03 
777.386  1.51600000e+03 
777.350  1.50000000e+03 
777.314  1.50200000e+03 
777.278  1.55500000e+03 
777.242  1.53100000e+03 
777.206  1.51400000e+03 
777.170  1.46200000e+03 
777.134  1.54700000e+03 
777.098  1.52000000e+03 
777.062  1.54800000e+03 
777.027  1.51400000e+03 
776.991  1.52800000e+03 
776.955  1.55000000e+03 
776.919  1.52000000e+03 
776.883  1.59200000e+03 
776.847  1.50100000e+03 
776.811  1.50300000e+03 
776.775  1.50900000e+03 
776.739  1.51800000e+03 
776.703  1.52300000e+03 
776.667  1.54200000e+03 
776.631  1.47500000e+03 
776.595  1.47900000e+03 
776.559  1.57900000e+03 
776.523  1.58700000e+03 
776.488  1.55000000e+03 
776.452  1.52200000e+03 
776.416  1.59400000e+03 
776.380  1.52100000e+03 
776.344  1.59600000e+03 
776.308  1.54300000e+03 
776.272  1.50700000e+03 
776.236  1.51500000e+03 
776.200  1.59700000e+03 
776.164  1.55200000e+03 
776.128  1.51900000e+03 
776.092  1.56900000e+03 
776.056  1.53000000e+03 
776.020  1.50200000e+03 
775.984  1.49000000e+03 
775.948  1.49900000e+03 
775.913  1.50000000e+03 
775.877  1.56500000e+03 
775.841  1.52700000e+03 
775.805  1.53700000e+03 
775.769  1.62300000e+03 
775.733  1.49300000e+03 
775.697  1.51200000e+03 
775.661  1.52400000e+03 
775.625  1.55800000e+03 
775.589  1.56900000e+03 
775.553  1.58600000e+03 
775.517  1.54800000e+03 
775.481  1.51600000e+03 
775.445  1.50900000e+03 
775.409  1.54700000e+03 
775.373  1.50300000e+03 
775.337  1.49800000e+03 
775.302  1.54600000e+03 
775.266  1.50500000e+03 
775.230  1.47400000e+03 
775.194  1.45000000e+03 
775.158  1.61100000e+03 
775.122  1.50500000e+03 
775.086  1.56300000e+03 
775.050  1.55700000e+03 
775.014  1.53300000e+03 
774.978  1.52700000e+03 
774.942  1.58500000e+03 
774.906  1.51700000e+03 
774.870  1.50400000e+03 
774.834  1.55500000e+03 
774.798  1.51000000e+03 
774.763  1.53900000e+03 
774.727  1.56500000e+03 
774.691  1.56600000e+03 
774.655  1.53900000e+03 
774.619  1.52300000e+03 
774.583  1.54100000e+03 
774.547  1.55900000e+03 
774.511  1.55600000e+03 
774.475  1.56900000e+03 
774.439  1.57500000e+03 
774.403  1.58200000e+03 
774.367  1.65200000e+03 
774.331  1.52100000e+03 
774.295  1.60800000e+03 
774.259  1.54600000e+03 
774.223  1.51600000e+03 
774.188  1.54100000e+03 
774.152  1.47200000e+03 
774.116  1.55900000e+03 
774.080  1.48900000e+03 
774.044  1.58400000e+03 
774.008  1.56700000e+03 
773.972  1.59100000e+03 
773.936  1.55400000e+03 
773.900  1.51800000e+03 
773.864  1.53400000e+03 
773.828  1.53300000e+03 
773.792  1.57600000e+03 
773.756  1.61300000e+03 
773.720  1.55400000e+03 
773.684  1.54800000e+03 
773.648  1.56300000e+03 
773.613  1.53900000e+03 
773.577  1.62700000e+03 
773.541  1.44200000e+03 
773.505  1.50200000e+03 
773.469  1.52600000e+03 
773.433  1.56600000e+03 
773.397  1.61600000e+03 
773.361  1.53100000e+03 
773.325  1.59600000e+03 
