EXPERIMENT FILE
Version = 2

[ Experiment Parameters ]
Experiment Description= <none> 
Number_of_Regions_in_Experiment= 1 

Original_File_name= C:\alexesca\data\0412AuTest.xps 
Instrument= HP ESCA West
Date= 04-12-2013
Time=  16:21:47

[ Layer Parameters ]
Layer_Type= XPS

[ Region 1 Parameters ]
Region_Description = Au 4f Dithered 92eV Center 10eV Width
BEcenter(eV) = 92.000000
BEwidth(eV) = 10.000000
BEstep(eV) = 0.035937
Dwell_Time(sec) = 1.000000
N_o_scans = 1  
N_o_Channels = 278  
Scan_mode = 0  (DITHERED)

[ L= 1 R= 1 ]
BEcenter= 92.000  
BEwidth= -9.955  
Excitation= 1486.600
Time_p_channel= 256.000 
Size= 278
96.977   5.04000000e+02 
96.941   5.56000000e+02 
96.905   5.49000000e+02 
96.870   5.98000000e+02 
96.834   5.55000000e+02 
96.798   5.77000000e+02 
96.762   6.00000000e+02 
96.726   5.40000000e+02 
96.690   5.42000000e+02 
96.654   5.57000000e+02 
96.618   5.76000000e+02 
96.582   5.83000000e+02 
96.546   5.75000000e+02 
96.510   5.76000000e+02 
96.474   6.33000000e+02 
96.438   5.85000000e+02 
96.402   6.45000000e+02 
96.366   6.56000000e+02 
96.330   6.68000000e+02 
96.295   6.47000000e+02 
96.259   6.40000000e+02 
96.223   6.98000000e+02 
96.187   7.25000000e+02 
96.151   7.76000000e+02 
96.115   7.24000000e+02 
96.079   6.84000000e+02 
96.043   7.41000000e+02 
96.007   7.82000000e+02 
95.971   7.92000000e+02 
95.935   8.55000000e+02 
95.899   8.63000000e+02 
95.863   8.06000000e+02 
95.827   8.88000000e+02 
95.791   9.23000000e+02 
95.755   9.37000000e+02 
95.720   9.32000000e+02 
95.684   1.01500000e+03 
95.648   1.03000000e+03 
95.612   1.05200000e+03 
95.576   1.11000000e+03 
95.540   1.17300000e+03 
95.504   1.15400000e+03 
95.468   1.26400000e+03 
95.432   1.25200000e+03 
95.396   1.27200000e+03 
95.360   1.29900000e+03 
95.324   1.46400000e+03 
95.288   1.46100000e+03 
95.252   1.57400000e+03 
95.216   1.55800000e+03 
95.180   1.66300000e+03 
95.145   1.71100000e+03 
95.109   1.76700000e+03 
95.073   1.84400000e+03 
95.037   1.89700000e+03 
95.001   2.04500000e+03 
94.965   2.04800000e+03 
94.929   2.16000000e+03 
94.893   2.20200000e+03 
94.857   2.25000000e+03 
94.821   2.36300000e+03 
94.785   2.42200000e+03 
94.749   2.46800000e+03 
94.713   2.58300000e+03 
94.677   2.60700000e+03 
94.641   2.71000000e+03 
94.605   2.77600000e+03 
94.570   2.77200000e+03 
94.534   2.69500000e+03 
94.498   2.76400000e+03 
94.462   2.93300000e+03 
94.426   2.76800000e+03 
94.390   2.85900000e+03 
94.354   2.67600000e+03 
94.318   2.68200000e+03 
94.282   2.51800000e+03 
94.246   2.42800000e+03 
94.210   2.27300000e+03 
94.174   2.15400000e+03 
94.138   2.04700000e+03 
94.102   1.93200000e+03 
94.066   1.77300000e+03 
94.030   1.60200000e+03 
93.995   1.41200000e+03 
93.959   1.29600000e+03 
93.923   1.29700000e+03 
93.887   1.17000000e+03 
93.851   1.03400000e+03 
93.815   9.58000000e+02 
93.779   9.25000000e+02 
93.743   7.88000000e+02 
93.707   7.78000000e+02 
93.671   7.40000000e+02 
93.635   6.93000000e+02 
93.599   6.86000000e+02 
93.563   6.57000000e+02 
93.527   6.66000000e+02 
93.491   6.44000000e+02 
93.455   6.21000000e+02 
93.420   6.31000000e+02 
93.384   6.10000000e+02 
93.348   5.96000000e+02 
93.312   6.08000000e+02 
93.276   5.79000000e+02 
93.240   5.72000000e+02 
93.204   5.80000000e+02 
93.168   6.25000000e+02 
93.132   5.41000000e+02 
93.096   6.02000000e+02 
93.060   5.50000000e+02 
93.024   5.45000000e+02 
92.988   5.82000000e+02 
92.952   5.58000000e+02 
92.916   6.19000000e+02 
92.880   5.61000000e+02 
92.845   5.98000000e+02 
92.809   6.47000000e+02 
92.773   6.18000000e+02 
92.737   6.04000000e+02 
92.701   5.91000000e+02 
92.665   6.20000000e+02 
92.629   6.76000000e+02 
92.593   6.37000000e+02 
92.557   6.59000000e+02 
92.521   6.61000000e+02 
92.485   7.25000000e+02 
92.449   6.89000000e+02 
92.413   7.14000000e+02 
92.377   7.35000000e+02 
92.341   7.74000000e+02 
92.305   7.90000000e+02 
92.270   8.47000000e+02 
92.234   8.54000000e+02 
92.198   8.67000000e+02 
92.162   9.57000000e+02 
92.126   9.73000000e+02 
92.090   9.49000000e+02 
92.054   1.01400000e+03 
92.018   9.89000000e+02 
91.982   1.10100000e+03 
91.946   1.08400000e+03 
91.910   1.16100000e+03 
91.874   1.22700000e+03 
91.838   1.24000000e+03 
91.802   1.33100000e+03 
91.766   1.41800000e+03 
91.730   1.48900000e+03 
91.695   1.50200000e+03 
91.659   1.56800000e+03 
91.623   1.65700000e+03 
91.587   1.72900000e+03 
91.551   1.83100000e+03 
91.515   1.91200000e+03 
91.479   1.85300000e+03 
91.443   1.98100000e+03 
91.407   2.12700000e+03 
91.371   2.20300000e+03 
91.335   2.27900000e+03 
91.299   2.29900000e+03 
91.263   2.61400000e+03 
91.227   2.64500000e+03 
91.191   2.60300000e+03 
91.155   2.76600000e+03 
91.120   2.84200000e+03 
91.084   2.99300000e+03 
91.048   3.03100000e+03 
91.012   3.12300000e+03 
90.976   3.18400000e+03 
90.940   3.27100000e+03 
90.904   3.37400000e+03 
90.868   3.46100000e+03 
90.832   3.46800000e+03 
90.796   3.53100000e+03 
90.760   3.34600000e+03 
90.724   3.22800000e+03 
90.688   3.30800000e+03 
90.652   3.22600000e+03 
90.616   3.07300000e+03 
90.580   2.99800000e+03 
90.545   2.87400000e+03 
90.509   2.62100000e+03 
90.473   2.37800000e+03 
90.437   2.23600000e+03 
90.401   2.04800000e+03 
90.365   1.82300000e+03 
90.329   1.57600000e+03 
90.293   1.41500000e+03 
90.257   1.28600000e+03 
90.221   1.10600000e+03 
90.185   1.00900000e+03 
90.149   9.28000000e+02 
90.113   8.21000000e+02 
90.077   7.70000000e+02 
90.041   7.23000000e+02 
90.005   6.17000000e+02 
89.970   5.89000000e+02 
89.934   5.62000000e+02 
89.898   5.28000000e+02 
89.862   4.92000000e+02 
89.826   4.51000000e+02 
89.790   4.32000000e+02 
89.754   4.48000000e+02 
89.718   4.09000000e+02 
89.682   3.73000000e+02 
89.646   3.50000000e+02 
89.610   4.08000000e+02 
89.574   3.47000000e+02 
89.538   3.44000000e+02 
89.502   3.24000000e+02 
89.466   3.51000000e+02 
89.430   3.49000000e+02 
89.395   3.20000000e+02 
89.359   3.32000000e+02 
89.323   3.36000000e+02 
89.287   2.67000000e+02 
89.251   3.09000000e+02 
89.215   3.11000000e+02 
89.179   2.82000000e+02 
89.143   2.70000000e+02 
89.107   2.92000000e+02 
89.071   2.41000000e+02 
89.035   2.77000000e+02 
88.999   2.97000000e+02 
88.963   2.62000000e+02 
88.927   2.45000000e+02 
88.891   2.44000000e+02 
88.855   2.58000000e+02 
88.820   2.31000000e+02 
88.784   2.24000000e+02 
88.748   2.63000000e+02 
88.712   2.78000000e+02 
88.676   2.57000000e+02 
88.640   2.60000000e+02 
88.604   2.31000000e+02 
88.568   2.36000000e+02 
88.532   2.23000000e+02 
88.496   2.32000000e+02 
88.460   2.49000000e+02 
88.424   2.35000000e+02 
88.388   2.47000000e+02 
88.352   2.29000000e+02 
88.316   2.30000000e+02 
88.280   2.14000000e+02 
88.245   2.49000000e+02 
88.209   2.40000000e+02 
88.173   2.41000000e+02 
88.137   2.27000000e+02 
88.101   2.37000000e+02 
88.065   2.47000000e+02 
88.029   2.36000000e+02 
87.993   2.32000000e+02 
87.957   2.28000000e+02 
87.921   2.21000000e+02 
87.885   2.17000000e+02 
87.849   1.92000000e+02 
87.813   2.07000000e+02 
87.777   2.20000000e+02 
87.741   2.17000000e+02 
87.705   2.09000000e+02 
87.670   2.24000000e+02 
87.634   2.38000000e+02 
87.598   1.90000000e+02 
87.562   1.98000000e+02 
87.526   2.14000000e+02 
87.490   2.45000000e+02 
87.454   2.48000000e+02 
87.418   2.02000000e+02 
87.382   2.06000000e+02 
87.346   2.14000000e+02 
87.310   2.04000000e+02 
87.274   2.27000000e+02 
87.238   2.25000000e+02 
87.202   2.22000000e+02 
87.166   2.33000000e+02 
87.130   2.12000000e+02 
87.095   2.20000000e+02 
87.059   2.02000000e+02 
87.023   2.45000000e+02 

