EXPERIMENT FILE
Version = 2

[ Experiment Parameters ]
Experiment Description= <none> 
Number_of_Regions_in_Experiment= 1 

Original_File_name= C:\alexesca\data\0415angNeg30.xps 
Instrument= HP ESCA West
Date= 04-15-2013
Time=  17:41:54

[ Layer Parameters ]
Layer_Type= XPS

[ Region 1 Parameters ]
Region_Description = Au 4f Dithered 92eV Center 10eV Width
BEcenter(eV) = 92.000000
BEwidth(eV) = 10.000000
BEstep(eV) = 0.035937
Dwell_Time(sec) = 1.000000
N_o_scans = 1  
N_o_Channels = 278  
Scan_mode = 0  (DITHERED)

[ L= 1 R= 1 ]
BEcenter= 92.000  
BEwidth= -9.955  
Excitation= 1486.600
Time_p_channel= 256.000 
Size= 278
96.977   2.12000000e+02 
96.941   2.42000000e+02 
96.905   2.51000000e+02 
96.870   2.27000000e+02 
96.834   2.39000000e+02 
96.798   2.49000000e+02 
96.762   2.58000000e+02 
96.726   2.44000000e+02 
96.690   2.48000000e+02 
96.654   2.38000000e+02 
96.618   2.44000000e+02 
96.582   2.82000000e+02 
96.546   2.74000000e+02 
96.510   2.31000000e+02 
96.474   2.33000000e+02 
96.438   2.41000000e+02 
96.402   2.33000000e+02 
96.366   2.46000000e+02 
96.330   2.60000000e+02 
96.295   2.60000000e+02 
96.259   2.77000000e+02 
96.223   2.82000000e+02 
96.187   3.27000000e+02 
96.151   2.97000000e+02 
96.115   3.20000000e+02 
96.079   3.38000000e+02 
96.043   3.15000000e+02 
96.007   3.12000000e+02 
95.971   3.27000000e+02 
95.935   3.58000000e+02 
95.899   3.42000000e+02 
95.863   3.89000000e+02 
95.827   3.77000000e+02 
95.791   4.13000000e+02 
95.755   3.73000000e+02 
95.720   4.16000000e+02 
95.684   5.07000000e+02 
95.648   4.83000000e+02 
95.612   5.10000000e+02 
95.576   4.94000000e+02 
95.540   5.39000000e+02 
95.504   5.48000000e+02 
95.468   5.72000000e+02 
95.432   6.03000000e+02 
95.396   6.27000000e+02 
95.360   6.90000000e+02 
95.324   7.52000000e+02 
95.288   7.00000000e+02 
95.252   7.70000000e+02 
95.216   8.61000000e+02 
95.180   9.28000000e+02 
95.145   9.29000000e+02 
95.109   9.01000000e+02 
95.073   9.52000000e+02 
95.037   9.62000000e+02 
95.001   1.08000000e+03 
94.965   1.07400000e+03 
94.929   1.10900000e+03 
94.893   1.16000000e+03 
94.857   1.12700000e+03 
94.821   1.13500000e+03 
94.785   1.20000000e+03 
94.749   1.15700000e+03 
94.713   1.17900000e+03 
94.677   1.18200000e+03 
94.641   1.10100000e+03 
94.605   1.10200000e+03 
94.570   1.02900000e+03 
94.534   1.03300000e+03 
94.498   9.37000000e+02 
94.462   9.03000000e+02 
94.426   8.37000000e+02 
94.390   7.42000000e+02 
94.354   7.26000000e+02 
94.318   6.50000000e+02 
94.282   6.29000000e+02 
94.246   5.53000000e+02 
94.210   5.02000000e+02 
94.174   4.67000000e+02 
94.138   4.05000000e+02 
94.102   3.78000000e+02 
94.066   3.37000000e+02 
94.030   3.37000000e+02 
93.995   3.14000000e+02 
93.959   3.43000000e+02 
93.923   2.88000000e+02 
93.887   3.16000000e+02 
93.851   2.93000000e+02 
93.815   2.83000000e+02 
93.779   2.80000000e+02 
93.743   2.69000000e+02 
93.707   2.50000000e+02 
93.671   2.50000000e+02 
93.635   2.25000000e+02 
93.599   2.20000000e+02 
93.563   2.33000000e+02 
93.527   2.33000000e+02 
93.491   2.42000000e+02 
93.455   2.07000000e+02 
93.420   2.23000000e+02 
93.384   2.09000000e+02 
93.348   2.27000000e+02 
93.312   2.21000000e+02 
93.276   2.35000000e+02 
93.240   2.18000000e+02 
93.204   2.25000000e+02 
93.168   2.03000000e+02 
93.132   2.37000000e+02 
93.096   2.23000000e+02 
93.060   2.23000000e+02 
93.024   2.44000000e+02 
92.988   1.90000000e+02 
92.952   2.18000000e+02 
92.916   2.27000000e+02 
92.880   2.42000000e+02 
92.845   2.46000000e+02 
92.809   2.60000000e+02 
92.773   2.21000000e+02 
92.737   2.35000000e+02 
92.701   2.26000000e+02 
92.665   2.93000000e+02 
92.629   2.50000000e+02 
92.593   2.77000000e+02 
92.557   3.04000000e+02 
92.521   2.56000000e+02 
92.485   2.95000000e+02 
92.449   2.86000000e+02 
92.413   3.34000000e+02 
92.377   3.16000000e+02 
92.341   3.33000000e+02 
92.305   3.53000000e+02 
92.270   3.46000000e+02 
92.234   3.42000000e+02 
92.198   3.43000000e+02 
92.162   3.85000000e+02 
92.126   4.16000000e+02 
92.090   4.30000000e+02 
92.054   4.46000000e+02 
92.018   4.86000000e+02 
91.982   4.84000000e+02 
91.946   5.56000000e+02 
91.910   4.96000000e+02 
91.874   6.04000000e+02 
91.838   6.21000000e+02 
91.802   6.33000000e+02 
91.766   6.78000000e+02 
91.730   7.18000000e+02 
91.695   7.91000000e+02 
91.659   7.99000000e+02 
91.623   8.55000000e+02 
91.587   9.68000000e+02 
91.551   9.42000000e+02 
91.515   1.03100000e+03 
91.479   1.05300000e+03 
91.443   1.10400000e+03 
91.407   1.16500000e+03 
91.371   1.19500000e+03 
91.335   1.28200000e+03 
91.299   1.27200000e+03 
91.263   1.32700000e+03 
91.227   1.38400000e+03 
91.191   1.38400000e+03 
91.155   1.39300000e+03 
91.120   1.49100000e+03 
91.084   1.46400000e+03 
91.048   1.45200000e+03 
91.012   1.39600000e+03 
90.976   1.41000000e+03 
90.940   1.35400000e+03 
90.904   1.29200000e+03 
90.868   1.20700000e+03 
90.832   1.14300000e+03 
90.796   1.09900000e+03 
90.760   1.01600000e+03 
90.724   9.08000000e+02 
90.688   7.95000000e+02 
90.652   6.87000000e+02 
90.616   5.89000000e+02 
90.580   5.60000000e+02 
90.545   5.01000000e+02 
90.509   4.57000000e+02 
90.473   4.01000000e+02 
90.437   3.95000000e+02 
90.401   3.85000000e+02 
90.365   3.41000000e+02 
90.329   3.03000000e+02 
90.293   2.64000000e+02 
90.257   2.94000000e+02 
90.221   2.50000000e+02 
90.185   2.06000000e+02 
90.149   2.22000000e+02 
90.113   1.97000000e+02 
90.077   1.77000000e+02 
90.041   1.46000000e+02 
90.005   1.72000000e+02 
89.970   1.88000000e+02 
89.934   1.59000000e+02 
89.898   1.71000000e+02 
89.862   1.55000000e+02 
89.826   1.48000000e+02 
89.790   1.43000000e+02 
89.754   1.41000000e+02 
89.718   1.29000000e+02 
89.682   1.56000000e+02 
89.646   1.51000000e+02 
89.610   1.53000000e+02 
89.574   1.34000000e+02 
89.538   1.42000000e+02 
89.502   1.49000000e+02 
89.466   1.17000000e+02 
89.430   1.42000000e+02 
89.395   1.24000000e+02 
89.359   1.30000000e+02 
89.323   1.22000000e+02 
89.287   1.26000000e+02 
89.251   1.12000000e+02 
89.215   1.33000000e+02 
89.179   1.16000000e+02 
89.143   1.11000000e+02 
89.107   1.22000000e+02 
89.071   1.08000000e+02 
89.035   1.10000000e+02 
88.999   1.16000000e+02 
88.963   1.01000000e+02 
88.927   1.11000000e+02 
88.891   1.35000000e+02 
88.855   1.08000000e+02 
88.820   1.00000000e+02 
88.784   1.29000000e+02 
88.748   1.16000000e+02 
88.712   1.25000000e+02 
88.676   1.09000000e+02 
88.640   1.20000000e+02 
88.604   1.03000000e+02 
88.568   1.07000000e+02 
88.532   1.16000000e+02 
88.496   1.04000000e+02 
88.460   1.14000000e+02 
88.424   1.06000000e+02 
88.388   9.60000000e+01 
88.352   1.11000000e+02 
88.316   1.04000000e+02 
88.280   1.18000000e+02 
88.245   9.20000000e+01 
88.209   1.12000000e+02 
88.173   1.01000000e+02 
88.137   1.14000000e+02 
88.101   1.10000000e+02 
88.065   9.50000000e+01 
88.029   1.06000000e+02 
87.993   1.10000000e+02 
87.957   1.03000000e+02 
87.921   9.30000000e+01 
87.885   9.20000000e+01 
87.849   1.12000000e+02 
87.813   1.13000000e+02 
87.777   1.10000000e+02 
87.741   9.30000000e+01 
87.705   9.30000000e+01 
87.670   1.00000000e+02 
87.634   1.06000000e+02 
87.598   1.10000000e+02 
87.562   1.14000000e+02 
87.526   1.09000000e+02 
87.490   1.01000000e+02 
87.454   8.70000000e+01 
87.418   8.90000000e+01 
87.382   1.02000000e+02 
87.346   1.13000000e+02 
87.310   1.11000000e+02 
87.274   1.00000000e+02 
87.238   1.03000000e+02 
87.202   1.13000000e+02 
87.166   9.50000000e+01 
87.130   1.00000000e+02 
87.095   9.80000000e+01 
87.059   1.03000000e+02 
87.023   9.10000000e+01 

