EXPERIMENT FILE
Version = 2

[ Experiment Parameters ]
Experiment Description= <none> 
Number_of_Regions_in_Experiment= 1 

Original_File_name= C:\alexesca\data\0418Au4fNeg30.xps 
Instrument= HP ESCA West
Date= 04-18-2013
Time=  14:55:57

[ Layer Parameters ]
Layer_Type= XPS

[ Region 1 Parameters ]
Region_Description = Au 4f Dithered 92eV Center 10eV Width
BEcenter(eV) = 92.000000
BEwidth(eV) = 10.000000
BEstep(eV) = 0.035938
Dwell_Time(sec) = 1.000000
N_o_scans = 1  
N_o_Channels = 278  
Scan_mode = 0  (DITHERED)

[ L= 1 R= 1 ]
BEcenter= 92.000  
BEwidth= -9.955  
Excitation= 1486.600
Time_p_channel= 256.000 
Size= 278
96.977   2.13000000e+02 
96.941   2.45000000e+02 
96.905   2.69000000e+02 
96.870   2.33000000e+02 
96.834   2.49000000e+02 
96.798   2.39000000e+02 
96.762   2.59000000e+02 
96.726   2.64000000e+02 
96.690   2.16000000e+02 
96.654   2.17000000e+02 
96.618   2.62000000e+02 
96.582   2.54000000e+02 
96.546   2.75000000e+02 
96.510   2.34000000e+02 
96.474   2.41000000e+02 
96.438   2.68000000e+02 
96.402   2.22000000e+02 
96.366   2.56000000e+02 
96.330   2.51000000e+02 
96.295   2.50000000e+02 
96.259   2.51000000e+02 
96.223   2.83000000e+02 
96.187   2.66000000e+02 
96.151   2.43000000e+02 
96.115   2.64000000e+02 
96.079   2.98000000e+02 
96.043   3.00000000e+02 
96.007   2.95000000e+02 
95.971   3.11000000e+02 
95.935   3.51000000e+02 
95.899   3.08000000e+02 
95.863   3.13000000e+02 
95.827   3.22000000e+02 
95.791   3.41000000e+02 
95.755   3.36000000e+02 
95.720   3.88000000e+02 
95.684   3.65000000e+02 
95.648   3.74000000e+02 
95.612   3.88000000e+02 
95.576   4.27000000e+02 
95.540   4.71000000e+02 
95.504   4.44000000e+02 
95.468   4.65000000e+02 
95.432   5.12000000e+02 
95.396   5.48000000e+02 
95.360   5.49000000e+02 
95.324   5.48000000e+02 
95.288   6.15000000e+02 
95.252   6.52000000e+02 
95.216   7.06000000e+02 
95.180   7.26000000e+02 
95.145   7.31000000e+02 
95.109   7.41000000e+02 
95.073   7.83000000e+02 
95.037   8.58000000e+02 
95.001   8.81000000e+02 
94.965   9.26000000e+02 
94.929   9.45000000e+02 
94.893   1.01400000e+03 
94.857   1.03300000e+03 
94.821   1.07000000e+03 
94.785   1.11700000e+03 
94.749   1.11600000e+03 
94.713   1.14100000e+03 
94.677   1.14700000e+03 
94.641   1.18900000e+03 
94.605   1.12900000e+03 
94.570   1.13300000e+03 
94.534   1.16100000e+03 
94.498   1.14700000e+03 
94.462   1.05300000e+03 
94.426   1.01800000e+03 
94.390   9.35000000e+02 
94.354   9.12000000e+02 
94.318   8.34000000e+02 
94.282   7.87000000e+02 
94.246   7.35000000e+02 
94.210   6.24000000e+02 
94.174   5.64000000e+02 
94.138   5.28000000e+02 
94.102   4.83000000e+02 
94.066   4.86000000e+02 
94.030   4.43000000e+02 
93.995   4.14000000e+02 
93.959   4.08000000e+02 
93.923   3.43000000e+02 
93.887   3.31000000e+02 
93.851   3.16000000e+02 
93.815   2.88000000e+02 
93.779   2.96000000e+02 
93.743   2.67000000e+02 
93.707   2.64000000e+02 
93.671   2.66000000e+02 
93.635   2.79000000e+02 
93.599   2.50000000e+02 
93.563   2.36000000e+02 
93.527   2.58000000e+02 
93.491   2.42000000e+02 
93.455   2.22000000e+02 
93.420   2.49000000e+02 
93.384   2.26000000e+02 
93.348   2.24000000e+02 
93.312   2.68000000e+02 
93.276   2.22000000e+02 
93.240   2.28000000e+02 
93.204   2.32000000e+02 
93.168   2.04000000e+02 
93.132   2.28000000e+02 
93.096   2.08000000e+02 
93.060   2.34000000e+02 
93.024   2.11000000e+02 
92.988   2.48000000e+02 
92.952   2.01000000e+02 
92.916   1.98000000e+02 
92.880   2.28000000e+02 
92.845   1.94000000e+02 
92.809   2.25000000e+02 
92.773   2.07000000e+02 
92.737   2.33000000e+02 
92.701   2.18000000e+02 
92.665   2.33000000e+02 
92.629   2.67000000e+02 
92.593   2.21000000e+02 
92.557   2.61000000e+02 
92.521   2.61000000e+02 
92.485   2.43000000e+02 
92.449   2.60000000e+02 
92.413   2.49000000e+02 
92.377   2.90000000e+02 
92.341   2.94000000e+02 
92.305   2.76000000e+02 
92.270   3.01000000e+02 
92.234   3.13000000e+02 
92.198   3.40000000e+02 
92.162   3.51000000e+02 
92.126   3.54000000e+02 
92.090   3.64000000e+02 
92.054   3.59000000e+02 
92.018   3.86000000e+02 
91.982   3.91000000e+02 
91.946   4.71000000e+02 
91.910   4.76000000e+02 
91.874   4.97000000e+02 
91.838   5.35000000e+02 
91.802   5.15000000e+02 
91.766   5.33000000e+02 
91.730   6.27000000e+02 
91.695   6.27000000e+02 
91.659   6.37000000e+02 
91.623   7.01000000e+02 
91.587   7.25000000e+02 
91.551   7.41000000e+02 
91.515   8.01000000e+02 
91.479   8.99000000e+02 
91.443   8.87000000e+02 
91.407   9.03000000e+02 
91.371   9.78000000e+02 
91.335   1.07700000e+03 
91.299   1.08900000e+03 
91.263   1.18400000e+03 
91.227   1.26100000e+03 
91.191   1.23700000e+03 
91.155   1.28300000e+03 
91.120   1.27600000e+03 
91.084   1.27100000e+03 
91.048   1.38700000e+03 
91.012   1.48400000e+03 
90.976   1.40200000e+03 
90.940   1.43500000e+03 
90.904   1.39000000e+03 
90.868   1.40200000e+03 
90.832   1.32700000e+03 
90.796   1.30900000e+03 
90.760   1.20500000e+03 
90.724   1.11400000e+03 
90.688   1.05600000e+03 
90.652   9.30000000e+02 
90.616   8.94000000e+02 
90.580   8.21000000e+02 
90.545   7.57000000e+02 
90.509   6.71000000e+02 
90.473   6.01000000e+02 
90.437   5.26000000e+02 
90.401   4.76000000e+02 
90.365   4.39000000e+02 
90.329   4.00000000e+02 
90.293   3.19000000e+02 
90.257   3.28000000e+02 
90.221   2.78000000e+02 
90.185   2.83000000e+02 
90.149   2.60000000e+02 
90.113   2.26000000e+02 
90.077   2.20000000e+02 
90.041   2.03000000e+02 
90.005   1.95000000e+02 
89.970   1.93000000e+02 
89.934   2.04000000e+02 
89.898   1.92000000e+02 
89.862   1.81000000e+02 
89.826   1.74000000e+02 
89.790   1.57000000e+02 
89.754   1.51000000e+02 
89.718   1.63000000e+02 
89.682   1.50000000e+02 
89.646   1.54000000e+02 
89.610   1.46000000e+02 
89.574   1.38000000e+02 
89.538   1.42000000e+02 
89.502   1.25000000e+02 
89.466   1.45000000e+02 
89.430   1.18000000e+02 
89.395   9.50000000e+01 
89.359   1.08000000e+02 
89.323   1.10000000e+02 
89.287   1.21000000e+02 
89.251   1.27000000e+02 
89.215   1.06000000e+02 
89.179   1.38000000e+02 
89.143   1.13000000e+02 
89.107   1.10000000e+02 
89.071   1.13000000e+02 
89.035   1.17000000e+02 
88.999   1.10000000e+02 
88.963   1.03000000e+02 
88.927   1.25000000e+02 
88.891   1.17000000e+02 
88.855   1.28000000e+02 
88.820   1.05000000e+02 
88.784   1.28000000e+02 
88.748   1.11000000e+02 
88.712   1.12000000e+02 
88.676   1.05000000e+02 
88.640   1.24000000e+02 
88.604   1.02000000e+02 
88.568   9.70000000e+01 
88.532   1.21000000e+02 
88.496   1.01000000e+02 
88.460   1.23000000e+02 
88.424   1.15000000e+02 
88.388   1.05000000e+02 
88.352   1.14000000e+02 
88.316   1.15000000e+02 
88.280   1.06000000e+02 
88.245   1.12000000e+02 
88.209   1.15000000e+02 
88.173   1.18000000e+02 
88.137   1.14000000e+02 
88.101   9.50000000e+01 
88.065   9.30000000e+01 
88.029   8.40000000e+01 
87.993   9.90000000e+01 
87.957   1.09000000e+02 
87.921   9.20000000e+01 
87.885   9.40000000e+01 
87.849   9.50000000e+01 
87.813   1.12000000e+02 
87.777   8.40000000e+01 
87.741   9.40000000e+01 
87.705   9.90000000e+01 
87.670   1.01000000e+02 
87.634   1.01000000e+02 
87.598   9.20000000e+01 
87.562   1.03000000e+02 
87.526   1.05000000e+02 
87.490   9.10000000e+01 
87.454   9.60000000e+01 
87.418   9.40000000e+01 
87.382   9.10000000e+01 
87.346   1.13000000e+02 
87.310   1.02000000e+02 
87.274   9.10000000e+01 
87.238   1.05000000e+02 
87.202   1.01000000e+02 
87.166   8.70000000e+01 
87.130   9.40000000e+01 
87.095   1.08000000e+02 
87.059   8.30000000e+01 
87.023   9.40000000e+01 

