EXPERIMENT FILE
Version = 2

[ Experiment Parameters ]
Experiment Description= <none> 
Number_of_Regions_in_Experiment= 1 

Original_File_name= C:\alexesca\data\10082012_Au_4f_quick_30.xps 
Instrument= HP ESCA West
Date= 10-09-2012
Time=  15:46:38

[ Layer Parameters ]
Layer_Type= XPS

[ Region 1 Parameters ]
Region_Description = Au quick Dithered Scan Test        
BEcenter(eV) = 91.000000
BEwidth(eV) = 10.000000
BEstep(eV) = 0.035937
Dwell_Time(sec) = 0.500000
N_o_scans = 1  
N_o_Channels = 278  
Scan_mode = 0  (DITHERED)

[ L= 1 R= 1 ]
BEcenter= 91.000  
BEwidth= -9.955  
Excitation= 1486.600
Time_p_channel= 128.000 
Size= 278
95.977   4.40000000e+01 
95.941   4.20000000e+01 
95.905   5.00000000e+01 
95.870   4.40000000e+01 
95.834   4.50000000e+01 
95.798   3.90000000e+01 
95.762   3.60000000e+01 
95.726   5.30000000e+01 
95.690   6.10000000e+01 
95.654   6.70000000e+01 
95.618   6.60000000e+01 
95.582   5.80000000e+01 
95.546   7.30000000e+01 
95.510   6.60000000e+01 
95.474   6.00000000e+01 
95.438   5.70000000e+01 
95.402   5.50000000e+01 
95.366   7.90000000e+01 
95.330   6.10000000e+01 
95.295   9.70000000e+01 
95.259   9.10000000e+01 
95.223   8.60000000e+01 
95.187   7.70000000e+01 
95.151   9.90000000e+01 
95.115   9.20000000e+01 
95.079   1.16000000e+02 
95.043   1.15000000e+02 
95.007   1.09000000e+02 
94.971   1.33000000e+02 
94.935   1.13000000e+02 
94.899   1.19000000e+02 
94.863   1.17000000e+02 
94.827   1.36000000e+02 
94.791   1.35000000e+02 
94.755   1.30000000e+02 
94.720   1.51000000e+02 
94.684   1.58000000e+02 
94.648   1.54000000e+02 
94.612   1.46000000e+02 
94.576   1.67000000e+02 
94.540   1.36000000e+02 
94.504   1.54000000e+02 
94.468   1.37000000e+02 
94.432   1.68000000e+02 
94.396   1.57000000e+02 
94.360   1.71000000e+02 
94.324   1.71000000e+02 
94.288   1.45000000e+02 
94.252   1.63000000e+02 
94.216   1.42000000e+02 
94.180   1.59000000e+02 
94.145   1.62000000e+02 
94.109   1.50000000e+02 
94.073   1.40000000e+02 
94.037   1.47000000e+02 
94.001   1.29000000e+02 
93.965   1.33000000e+02 
93.929   1.24000000e+02 
93.893   1.21000000e+02 
93.857   1.15000000e+02 
93.821   1.08000000e+02 
93.785   1.09000000e+02 
93.749   9.40000000e+01 
93.713   1.10000000e+02 
93.677   9.60000000e+01 
93.641   9.80000000e+01 
93.605   9.10000000e+01 
93.570   8.10000000e+01 
93.534   7.10000000e+01 
93.498   7.90000000e+01 
93.462   7.90000000e+01 
93.426   7.30000000e+01 
93.390   5.30000000e+01 
93.354   5.80000000e+01 
93.318   5.60000000e+01 
93.282   4.80000000e+01 
93.246   5.20000000e+01 
93.210   4.50000000e+01 
93.174   3.80000000e+01 
93.138   5.70000000e+01 
93.102   3.70000000e+01 
93.066   5.10000000e+01 
93.030   3.50000000e+01 
92.995   4.60000000e+01 
92.959   3.70000000e+01 
92.923   3.40000000e+01 
92.887   4.00000000e+01 
92.851   3.60000000e+01 
92.815   4.60000000e+01 
92.779   3.50000000e+01 
92.743   4.50000000e+01 
92.707   4.90000000e+01 
92.671   4.10000000e+01 
92.635   4.00000000e+01 
92.599   4.00000000e+01 
92.563   4.80000000e+01 
92.527   3.80000000e+01 
92.491   4.80000000e+01 
92.455   3.70000000e+01 
92.420   3.70000000e+01 
92.384   3.20000000e+01 
92.348   4.20000000e+01 
92.312   4.70000000e+01 
92.276   4.20000000e+01 
92.240   5.60000000e+01 
92.204   4.30000000e+01 
92.168   5.20000000e+01 
92.132   3.60000000e+01 
92.096   5.20000000e+01 
92.060   4.90000000e+01 
92.024   5.00000000e+01 
91.988   5.30000000e+01 
91.952   5.70000000e+01 
91.916   7.20000000e+01 
91.880   7.10000000e+01 
91.845   6.30000000e+01 
91.809   5.90000000e+01 
91.773   8.00000000e+01 
91.737   8.00000000e+01 
91.701   6.40000000e+01 
91.665   8.60000000e+01 
91.629   9.50000000e+01 
91.593   7.10000000e+01 
91.557   8.30000000e+01 
91.521   1.05000000e+02 
91.485   9.50000000e+01 
91.449   1.09000000e+02 
91.413   1.42000000e+02 
91.377   1.28000000e+02 
91.341   1.14000000e+02 
91.305   1.46000000e+02 
91.270   1.30000000e+02 
91.234   1.24000000e+02 
91.198   1.30000000e+02 
91.162   1.40000000e+02 
91.126   1.49000000e+02 
91.090   1.77000000e+02 
91.054   1.40000000e+02 
91.018   1.59000000e+02 
90.982   1.74000000e+02 
90.946   1.87000000e+02 
90.910   1.62000000e+02 
90.874   1.89000000e+02 
90.838   2.09000000e+02 
90.802   1.75000000e+02 
90.766   1.86000000e+02 
90.730   1.69000000e+02 
90.695   1.85000000e+02 
90.659   1.76000000e+02 
90.623   1.82000000e+02 
90.587   1.75000000e+02 
90.551   1.98000000e+02 
90.515   1.86000000e+02 
90.479   1.91000000e+02 
90.443   1.76000000e+02 
90.407   1.58000000e+02 
90.371   1.64000000e+02 
90.335   1.61000000e+02 
90.299   1.63000000e+02 
90.263   1.43000000e+02 
90.227   1.53000000e+02 
90.191   1.37000000e+02 
90.155   1.23000000e+02 
90.120   1.13000000e+02 
90.084   1.14000000e+02 
90.048   1.24000000e+02 
90.012   1.13000000e+02 
89.976   9.20000000e+01 
89.940   1.04000000e+02 
89.904   7.40000000e+01 
89.868   9.60000000e+01 
89.832   8.60000000e+01 
89.796   7.10000000e+01 
89.760   5.90000000e+01 
89.724   5.80000000e+01 
89.688   4.40000000e+01 
89.652   5.50000000e+01 
89.616   4.10000000e+01 
89.580   4.30000000e+01 
89.545   3.60000000e+01 
89.509   3.60000000e+01 
89.473   4.50000000e+01 
89.437   3.20000000e+01 
89.401   3.20000000e+01 
89.365   2.90000000e+01 
89.329   3.10000000e+01 
89.293   2.60000000e+01 
89.257   2.60000000e+01 
89.221   2.00000000e+01 
89.185   2.50000000e+01 
89.149   2.30000000e+01 
89.113   2.10000000e+01 
89.077   2.30000000e+01 
89.041   2.10000000e+01 
89.005   2.50000000e+01 
88.970   2.70000000e+01 
88.934   2.80000000e+01 
88.898   2.20000000e+01 
88.862   1.90000000e+01 
88.826   1.50000000e+01 
88.790   1.30000000e+01 
88.754   1.60000000e+01 
88.718   1.90000000e+01 
88.682   2.10000000e+01 
88.646   1.50000000e+01 
88.610   1.80000000e+01 
88.574   2.50000000e+01 
88.538   1.60000000e+01 
88.502   1.70000000e+01 
88.466   1.70000000e+01 
88.430   9.00000000e+00 
88.395   1.40000000e+01 
88.359   1.50000000e+01 
88.323   1.60000000e+01 
88.287   1.80000000e+01 
88.251   1.50000000e+01 
88.215   2.10000000e+01 
88.179   1.30000000e+01 
88.143   1.00000000e+01 
88.107   1.20000000e+01 
88.071   1.50000000e+01 
88.035   2.10000000e+01 
87.999   2.00000000e+01 
87.963   2.60000000e+01 
87.927   1.80000000e+01 
87.891   1.70000000e+01 
87.855   1.80000000e+01 
87.820   1.60000000e+01 
87.784   1.00000000e+01 
87.748   1.60000000e+01 
87.712   1.50000000e+01 
87.676   1.20000000e+01 
87.640   2.10000000e+01 
87.604   1.10000000e+01 
87.568   1.10000000e+01 
87.532   1.70000000e+01 
87.496   1.10000000e+01 
87.460   9.00000000e+00 
87.424   1.30000000e+01 
87.388   2.00000000e+01 
87.352   1.30000000e+01 
87.316   5.00000000e+00 
87.280   1.30000000e+01 
87.245   1.30000000e+01 
87.209   1.60000000e+01 
87.173   1.30000000e+01 
87.137   1.30000000e+01 
87.101   1.00000000e+01 
87.065   1.20000000e+01 
87.029   1.00000000e+01 
86.993   1.10000000e+01 
86.957   7.00000000e+00 
86.921   2.20000000e+01 
86.885   7.00000000e+00 
86.849   1.80000000e+01 
86.813   2.20000000e+01 
86.777   1.00000000e+01 
86.741   1.70000000e+01 
86.705   1.90000000e+01 
86.670   1.40000000e+01 
86.634   1.50000000e+01 
86.598   1.00000000e+01 
86.562   1.90000000e+01 
86.526   1.90000000e+01 
86.490   1.30000000e+01 
86.454   1.20000000e+01 
86.418   2.00000000e+01 
86.382   1.50000000e+01 
86.346   1.70000000e+01 
86.310   1.00000000e+01 
86.274   9.00000000e+00 
86.238   1.30000000e+01 
86.202   1.50000000e+01 
86.166   1.70000000e+01 
86.130   1.10000000e+01 
86.095   1.00000000e+01 
86.059   1.30000000e+01 
86.023   1.30000000e+01 

