EXPERIMENT FILE
Version = 2

[ Experiment Parameters ]
Experiment Description= <none> 
Number_of_Regions_in_Experiment= 1 

Original_File_name= C:\alexesca\data\10122012_Au _4f_quick_62nuetral-22.xps 
Instrument= HP ESCA West
Date= 10-12-2012
Time=  17:46:51

[ Layer Parameters ]
Layer_Type= XPS

[ Region 1 Parameters ]
Region_Description = Au quick Dithered Scan Test        
BEcenter(eV) = 91.000000
BEwidth(eV) = 10.000000
BEstep(eV) = 0.035937
Dwell_Time(sec) = 0.500000
N_o_scans = 1  
N_o_Channels = 278  
Scan_mode = 0  (DITHERED)

[ L= 1 R= 1 ]
BEcenter= 91.000  
BEwidth= -9.955  
Excitation= 1486.600
Time_p_channel= 128.000 
Size= 278
95.977   1.77000000e+02 
95.941   1.94000000e+02 
95.905   1.83000000e+02 
95.870   2.12000000e+02 
95.834   1.97000000e+02 
95.798   2.57000000e+02 
95.762   2.43000000e+02 
95.726   2.67000000e+02 
95.690   2.54000000e+02 
95.654   2.47000000e+02 
95.618   2.65000000e+02 
95.582   2.56000000e+02 
95.546   3.07000000e+02 
95.510   3.25000000e+02 
95.474   3.14000000e+02 
95.438   3.86000000e+02 
95.402   4.05000000e+02 
95.366   3.95000000e+02 
95.330   4.35000000e+02 
95.295   4.12000000e+02 
95.259   4.51000000e+02 
95.223   5.07000000e+02 
95.187   4.80000000e+02 
95.151   4.92000000e+02 
95.115   5.44000000e+02 
95.079   5.27000000e+02 
95.043   5.60000000e+02 
95.007   5.31000000e+02 
94.971   5.76000000e+02 
94.935   5.35000000e+02 
94.899   5.90000000e+02 
94.863   5.49000000e+02 
94.827   5.23000000e+02 
94.791   4.66000000e+02 
94.755   4.42000000e+02 
94.720   4.10000000e+02 
94.684   3.87000000e+02 
94.648   3.61000000e+02 
94.612   3.11000000e+02 
94.576   3.27000000e+02 
94.540   2.83000000e+02 
94.504   2.51000000e+02 
94.468   2.34000000e+02 
94.432   2.17000000e+02 
94.396   2.06000000e+02 
94.360   1.92000000e+02 
94.324   1.94000000e+02 
94.288   1.59000000e+02 
94.252   1.39000000e+02 
94.216   1.23000000e+02 
94.180   1.54000000e+02 
94.145   1.35000000e+02 
94.109   1.11000000e+02 
94.073   1.15000000e+02 
94.037   1.18000000e+02 
94.001   9.70000000e+01 
93.965   1.20000000e+02 
93.929   1.04000000e+02 
93.893   9.80000000e+01 
93.857   1.15000000e+02 
93.821   9.40000000e+01 
93.785   1.08000000e+02 
93.749   9.60000000e+01 
93.713   9.50000000e+01 
93.677   7.80000000e+01 
93.641   9.40000000e+01 
93.605   7.20000000e+01 
93.570   9.40000000e+01 
93.534   9.70000000e+01 
93.498   9.10000000e+01 
93.462   9.60000000e+01 
93.426   9.00000000e+01 
93.390   9.30000000e+01 
93.354   9.00000000e+01 
93.318   8.90000000e+01 
93.282   7.70000000e+01 
93.246   8.10000000e+01 
93.210   9.90000000e+01 
93.174   9.50000000e+01 
93.138   9.90000000e+01 
93.102   1.08000000e+02 
93.066   9.60000000e+01 
93.030   9.80000000e+01 
92.995   8.20000000e+01 
92.959   1.08000000e+02 
92.923   1.23000000e+02 
92.887   1.02000000e+02 
92.851   9.30000000e+01 
92.815   1.23000000e+02 
92.779   1.08000000e+02 
92.743   1.16000000e+02 
92.707   1.39000000e+02 
92.671   1.24000000e+02 
92.635   1.45000000e+02 
92.599   1.32000000e+02 
92.563   1.43000000e+02 
92.527   1.32000000e+02 
92.491   1.67000000e+02 
92.455   1.56000000e+02 
92.420   1.73000000e+02 
92.384   1.73000000e+02 
92.348   1.75000000e+02 
92.312   1.80000000e+02 
92.276   1.92000000e+02 
92.240   2.00000000e+02 
92.204   2.14000000e+02 
92.168   2.38000000e+02 
92.132   2.34000000e+02 
92.096   2.29000000e+02 
92.060   2.76000000e+02 
92.024   2.88000000e+02 
91.988   3.01000000e+02 
91.952   3.04000000e+02 
91.916   3.47000000e+02 
91.880   3.65000000e+02 
91.845   3.79000000e+02 
91.809   3.88000000e+02 
91.773   4.10000000e+02 
91.737   4.52000000e+02 
91.701   4.68000000e+02 
91.665   4.78000000e+02 
91.629   5.43000000e+02 
91.593   5.68000000e+02 
91.557   5.33000000e+02 
91.521   5.95000000e+02 
91.485   6.51000000e+02 
91.449   6.54000000e+02 
91.413   6.45000000e+02 
91.377   6.53000000e+02 
91.341   6.65000000e+02 
91.305   6.57000000e+02 
91.270   6.63000000e+02 
91.234   6.45000000e+02 
91.198   6.40000000e+02 
91.162   6.00000000e+02 
91.126   5.80000000e+02 
91.090   5.29000000e+02 
91.054   5.21000000e+02 
91.018   4.90000000e+02 
90.982   4.06000000e+02 
90.946   3.96000000e+02 
90.910   3.46000000e+02 
90.874   3.49000000e+02 
90.838   2.77000000e+02 
90.802   2.75000000e+02 
90.766   2.47000000e+02 
90.730   2.05000000e+02 
90.695   2.01000000e+02 
90.659   1.89000000e+02 
90.623   1.66000000e+02 
90.587   1.39000000e+02 
90.551   1.11000000e+02 
90.515   1.11000000e+02 
90.479   1.19000000e+02 
90.443   9.70000000e+01 
90.407   8.70000000e+01 
90.371   8.00000000e+01 
90.335   8.50000000e+01 
90.299   9.10000000e+01 
90.263   8.00000000e+01 
90.227   7.10000000e+01 
90.191   7.40000000e+01 
90.155   6.70000000e+01 
90.120   7.20000000e+01 
90.084   6.90000000e+01 
90.048   7.60000000e+01 
90.012   5.90000000e+01 
89.976   5.50000000e+01 
89.940   6.30000000e+01 
89.904   6.30000000e+01 
89.868   8.60000000e+01 
89.832   5.00000000e+01 
89.796   5.20000000e+01 
89.760   5.00000000e+01 
89.724   6.30000000e+01 
89.688   5.30000000e+01 
89.652   4.60000000e+01 
89.616   6.00000000e+01 
89.580   5.40000000e+01 
89.545   4.60000000e+01 
89.509   4.90000000e+01 
89.473   3.50000000e+01 
89.437   3.20000000e+01 
89.401   3.90000000e+01 
89.365   3.60000000e+01 
89.329   5.20000000e+01 
89.293   4.20000000e+01 
89.257   4.00000000e+01 
89.221   3.60000000e+01 
89.185   4.50000000e+01 
89.149   4.00000000e+01 
89.113   4.90000000e+01 
89.077   4.80000000e+01 
89.041   4.20000000e+01 
89.005   3.60000000e+01 
88.970   4.80000000e+01 
88.934   3.60000000e+01 
88.898   3.10000000e+01 
88.862   2.80000000e+01 
88.826   4.60000000e+01 
88.790   4.70000000e+01 
88.754   4.80000000e+01 
88.718   4.40000000e+01 
88.682   5.60000000e+01 
88.646   4.30000000e+01 
88.610   3.90000000e+01 
88.574   3.80000000e+01 
88.538   4.80000000e+01 
88.502   3.80000000e+01 
88.466   4.10000000e+01 
88.430   4.20000000e+01 
88.395   3.80000000e+01 
88.359   4.40000000e+01 
88.323   3.90000000e+01 
88.287   3.50000000e+01 
88.251   4.30000000e+01 
88.215   4.40000000e+01 
88.179   3.20000000e+01 
88.143   4.00000000e+01 
88.107   4.10000000e+01 
88.071   3.50000000e+01 
88.035   3.70000000e+01 
87.999   4.30000000e+01 
87.963   4.30000000e+01 
87.927   4.80000000e+01 
87.891   4.40000000e+01 
87.855   3.80000000e+01 
87.820   5.10000000e+01 
87.784   3.20000000e+01 
87.748   4.80000000e+01 
87.712   3.90000000e+01 
87.676   4.60000000e+01 
87.640   3.60000000e+01 
87.604   3.50000000e+01 
87.568   2.60000000e+01 
87.532   4.10000000e+01 
87.496   3.90000000e+01 
87.460   4.70000000e+01 
87.424   3.60000000e+01 
87.388   3.60000000e+01 
87.352   3.30000000e+01 
87.316   4.40000000e+01 
87.280   3.40000000e+01 
87.245   2.60000000e+01 
87.209   4.00000000e+01 
87.173   3.00000000e+01 
87.137   3.20000000e+01 
87.101   5.00000000e+01 
87.065   3.80000000e+01 
87.029   3.70000000e+01 
86.993   4.50000000e+01 
86.957   3.40000000e+01 
86.921   3.20000000e+01 
86.885   3.10000000e+01 
86.849   4.20000000e+01 
86.813   3.30000000e+01 
86.777   4.10000000e+01 
86.741   4.30000000e+01 
86.705   4.50000000e+01 
86.670   3.00000000e+01 
86.634   3.70000000e+01 
86.598   2.70000000e+01 
86.562   3.70000000e+01 
86.526   4.30000000e+01 
86.490   3.60000000e+01 
86.454   3.90000000e+01 
86.418   3.70000000e+01 
86.382   3.20000000e+01 
86.346   4.40000000e+01 
86.310   4.00000000e+01 
86.274   4.60000000e+01 
86.238   3.60000000e+01 
86.202   3.50000000e+01 
86.166   2.20000000e+01 
86.130   4.00000000e+01 
86.095   4.30000000e+01 
86.059   3.20000000e+01 
86.023   4.80000000e+01 

