EXPERIMENT FILE
Version = 2

[ Experiment Parameters ]
Experiment Description= <none> 
Number_of_Regions_in_Experiment= 1 

Original_File_name= C:\alexesca\data\10122012_Au _4f_quick_58nuetral-18.xps 
Instrument= HP ESCA West
Date= 10-12-2012
Time=  19:11:38

[ Layer Parameters ]
Layer_Type= XPS

[ Region 1 Parameters ]
Region_Description = Au quick Dithered Scan Test        
BEcenter(eV) = 91.000000
BEwidth(eV) = 10.000000
BEstep(eV) = 0.035937
Dwell_Time(sec) = 0.500000
N_o_scans = 1  
N_o_Channels = 278  
Scan_mode = 0  (DITHERED)

[ L= 1 R= 1 ]
BEcenter= 91.000  
BEwidth= -9.955  
Excitation= 1486.600
Time_p_channel= 128.000 
Size= 278
95.977   1.89000000e+02 
95.941   1.68000000e+02 
95.905   1.88000000e+02 
95.870   1.92000000e+02 
95.834   2.18000000e+02 
95.798   2.20000000e+02 
95.762   2.27000000e+02 
95.726   2.56000000e+02 
95.690   2.43000000e+02 
95.654   2.96000000e+02 
95.618   2.94000000e+02 
95.582   2.70000000e+02 
95.546   2.42000000e+02 
95.510   3.01000000e+02 
95.474   3.41000000e+02 
95.438   3.47000000e+02 
95.402   2.98000000e+02 
95.366   3.68000000e+02 
95.330   3.76000000e+02 
95.295   3.74000000e+02 
95.259   3.70000000e+02 
95.223   3.92000000e+02 
95.187   4.44000000e+02 
95.151   4.22000000e+02 
95.115   4.27000000e+02 
95.079   4.41000000e+02 
95.043   4.40000000e+02 
95.007   4.31000000e+02 
94.971   4.71000000e+02 
94.935   4.44000000e+02 
94.899   4.84000000e+02 
94.863   4.58000000e+02 
94.827   4.12000000e+02 
94.791   4.34000000e+02 
94.755   3.98000000e+02 
94.720   3.66000000e+02 
94.684   3.64000000e+02 
94.648   3.53000000e+02 
94.612   3.34000000e+02 
94.576   3.10000000e+02 
94.540   2.50000000e+02 
94.504   2.44000000e+02 
94.468   2.10000000e+02 
94.432   1.86000000e+02 
94.396   1.74000000e+02 
94.360   1.65000000e+02 
94.324   1.73000000e+02 
94.288   1.43000000e+02 
94.252   1.41000000e+02 
94.216   1.25000000e+02 
94.180   1.33000000e+02 
94.145   1.20000000e+02 
94.109   1.21000000e+02 
94.073   1.14000000e+02 
94.037   1.02000000e+02 
94.001   9.90000000e+01 
93.965   1.07000000e+02 
93.929   9.90000000e+01 
93.893   8.00000000e+01 
93.857   1.04000000e+02 
93.821   8.80000000e+01 
93.785   9.10000000e+01 
93.749   7.00000000e+01 
93.713   8.60000000e+01 
93.677   9.90000000e+01 
93.641   1.00000000e+02 
93.605   9.20000000e+01 
93.570   8.80000000e+01 
93.534   8.60000000e+01 
93.498   1.02000000e+02 
93.462   7.50000000e+01 
93.426   8.70000000e+01 
93.390   7.50000000e+01 
93.354   9.20000000e+01 
93.318   8.80000000e+01 
93.282   9.30000000e+01 
93.246   8.70000000e+01 
93.210   9.80000000e+01 
93.174   9.40000000e+01 
93.138   1.05000000e+02 
93.102   7.80000000e+01 
93.066   1.11000000e+02 
93.030   1.04000000e+02 
92.995   1.08000000e+02 
92.959   8.40000000e+01 
92.923   1.13000000e+02 
92.887   1.10000000e+02 
92.851   1.01000000e+02 
92.815   1.05000000e+02 
92.779   1.21000000e+02 
92.743   1.12000000e+02 
92.707   1.26000000e+02 
92.671   1.39000000e+02 
92.635   1.52000000e+02 
92.599   1.71000000e+02 
92.563   1.29000000e+02 
92.527   1.20000000e+02 
92.491   1.70000000e+02 
92.455   1.67000000e+02 
92.420   1.81000000e+02 
92.384   1.69000000e+02 
92.348   1.73000000e+02 
92.312   2.03000000e+02 
92.276   1.95000000e+02 
92.240   2.16000000e+02 
92.204   2.28000000e+02 
92.168   2.65000000e+02 
92.132   2.55000000e+02 
92.096   2.61000000e+02 
92.060   2.56000000e+02 
92.024   2.56000000e+02 
91.988   3.08000000e+02 
91.952   2.95000000e+02 
91.916   3.68000000e+02 
91.880   3.31000000e+02 
91.845   3.49000000e+02 
91.809   3.83000000e+02 
91.773   3.94000000e+02 
91.737   3.74000000e+02 
91.701   4.34000000e+02 
91.665   4.15000000e+02 
91.629   4.54000000e+02 
91.593   4.60000000e+02 
91.557   4.57000000e+02 
91.521   4.93000000e+02 
91.485   5.36000000e+02 
91.449   6.16000000e+02 
91.413   5.34000000e+02 
91.377   5.60000000e+02 
91.341   5.82000000e+02 
91.305   5.81000000e+02 
91.270   5.75000000e+02 
91.234   5.55000000e+02 
91.198   6.03000000e+02 
91.162   5.17000000e+02 
91.126   5.09000000e+02 
91.090   4.56000000e+02 
91.054   4.71000000e+02 
91.018   4.17000000e+02 
90.982   3.55000000e+02 
90.946   3.63000000e+02 
90.910   3.31000000e+02 
90.874   2.89000000e+02 
90.838   2.65000000e+02 
90.802   2.41000000e+02 
90.766   2.05000000e+02 
90.730   1.70000000e+02 
90.695   1.84000000e+02 
90.659   1.43000000e+02 
90.623   1.66000000e+02 
90.587   1.18000000e+02 
90.551   1.14000000e+02 
90.515   1.13000000e+02 
90.479   8.50000000e+01 
90.443   9.50000000e+01 
90.407   8.00000000e+01 
90.371   8.40000000e+01 
90.335   7.10000000e+01 
90.299   7.50000000e+01 
90.263   7.00000000e+01 
90.227   6.40000000e+01 
90.191   5.70000000e+01 
90.155   6.70000000e+01 
90.120   5.70000000e+01 
90.084   6.70000000e+01 
90.048   4.70000000e+01 
90.012   5.20000000e+01 
89.976   6.30000000e+01 
89.940   6.30000000e+01 
89.904   4.80000000e+01 
89.868   5.70000000e+01 
89.832   5.70000000e+01 
89.796   5.20000000e+01 
89.760   4.60000000e+01 
89.724   5.20000000e+01 
89.688   5.80000000e+01 
89.652   4.90000000e+01 
89.616   5.50000000e+01 
89.580   4.60000000e+01 
89.545   4.00000000e+01 
89.509   3.90000000e+01 
89.473   5.10000000e+01 
89.437   4.10000000e+01 
89.401   3.40000000e+01 
89.365   3.50000000e+01 
89.329   4.70000000e+01 
89.293   4.10000000e+01 
89.257   3.80000000e+01 
89.221   4.70000000e+01 
89.185   4.10000000e+01 
89.149   6.20000000e+01 
89.113   5.50000000e+01 
89.077   4.90000000e+01 
89.041   3.20000000e+01 
89.005   4.70000000e+01 
88.970   3.90000000e+01 
88.934   5.30000000e+01 
88.898   4.40000000e+01 
88.862   3.20000000e+01 
88.826   3.80000000e+01 
88.790   4.70000000e+01 
88.754   3.70000000e+01 
88.718   4.00000000e+01 
88.682   2.70000000e+01 
88.646   3.60000000e+01 
88.610   3.10000000e+01 
88.574   4.60000000e+01 
88.538   3.60000000e+01 
88.502   4.90000000e+01 
88.466   3.20000000e+01 
88.430   4.40000000e+01 
88.395   3.70000000e+01 
88.359   3.70000000e+01 
88.323   3.10000000e+01 
88.287   3.70000000e+01 
88.251   4.30000000e+01 
88.215   3.60000000e+01 
88.179   3.60000000e+01 
88.143   3.50000000e+01 
88.107   3.90000000e+01 
88.071   3.10000000e+01 
88.035   3.20000000e+01 
87.999   2.60000000e+01 
87.963   3.60000000e+01 
87.927   3.30000000e+01 
87.891   3.00000000e+01 
87.855   3.70000000e+01 
87.820   4.00000000e+01 
87.784   2.70000000e+01 
87.748   3.30000000e+01 
87.712   3.60000000e+01 
87.676   3.70000000e+01 
87.640   3.50000000e+01 
87.604   4.10000000e+01 
87.568   2.90000000e+01 
87.532   3.90000000e+01 
87.496   5.10000000e+01 
87.460   4.60000000e+01 
87.424   3.90000000e+01 
87.388   4.10000000e+01 
87.352   3.60000000e+01 
87.316   4.20000000e+01 
87.280   3.90000000e+01 
87.245   3.80000000e+01 
87.209   3.90000000e+01 
87.173   4.80000000e+01 
87.137   4.30000000e+01 
87.101   3.50000000e+01 
87.065   4.60000000e+01 
87.029   3.10000000e+01 
86.993   4.30000000e+01 
86.957   4.40000000e+01 
86.921   3.30000000e+01 
86.885   4.20000000e+01 
86.849   4.00000000e+01 
86.813   4.00000000e+01 
86.777   3.90000000e+01 
86.741   4.60000000e+01 
86.705   2.60000000e+01 
86.670   4.70000000e+01 
86.634   2.60000000e+01 
86.598   2.30000000e+01 
86.562   3.50000000e+01 
86.526   3.20000000e+01 
86.490   2.30000000e+01 
86.454   3.60000000e+01 
86.418   3.10000000e+01 
86.382   2.80000000e+01 
86.346   3.30000000e+01 
86.310   4.30000000e+01 
86.274   3.70000000e+01 
86.238   3.70000000e+01 
86.202   2.70000000e+01 
86.166   4.10000000e+01 
86.130   3.60000000e+01 
86.095   3.40000000e+01 
86.059   3.80000000e+01 
86.023   4.10000000e+01 

