EXPERIMENT FILE
Version = 2

[ Experiment Parameters ]
Experiment Description= <none> 
Number_of_Regions_in_Experiment= 1 

Original_File_name= C:\alexesca\data\10122012_Au _4f_quick_38nuetral+10.xps 
Instrument= HP ESCA West
Date= 10-12-2012
Time=  16:42:13

[ Layer Parameters ]
Layer_Type= XPS

[ Region 1 Parameters ]
Region_Description = Au quick Dithered Scan Test        
BEcenter(eV) = 91.000000
BEwidth(eV) = 10.000000
BEstep(eV) = 0.035937
Dwell_Time(sec) = 0.500000
N_o_scans = 1  
N_o_Channels = 278  
Scan_mode = 0  (DITHERED)

[ L= 1 R= 1 ]
BEcenter= 91.000  
BEwidth= -9.955  
Excitation= 1486.600
Time_p_channel= 128.000 
Size= 278
95.977   4.80000000e+02 
95.941   5.19000000e+02 
95.905   5.31000000e+02 
95.870   5.26000000e+02 
95.834   5.89000000e+02 
95.798   5.68000000e+02 
95.762   5.77000000e+02 
95.726   5.87000000e+02 
95.690   6.10000000e+02 
95.654   6.31000000e+02 
95.618   6.71000000e+02 
95.582   6.91000000e+02 
95.546   6.99000000e+02 
95.510   7.02000000e+02 
95.474   7.09000000e+02 
95.438   7.50000000e+02 
95.402   7.74000000e+02 
95.366   7.79000000e+02 
95.330   7.39000000e+02 
95.295   7.06000000e+02 
95.259   7.70000000e+02 
95.223   7.37000000e+02 
95.187   7.74000000e+02 
95.151   6.53000000e+02 
95.115   6.74000000e+02 
95.079   6.29000000e+02 
95.043   6.18000000e+02 
95.007   6.10000000e+02 
94.971   5.73000000e+02 
94.935   5.09000000e+02 
94.899   5.24000000e+02 
94.863   4.30000000e+02 
94.827   4.30000000e+02 
94.791   4.38000000e+02 
94.755   3.85000000e+02 
94.720   3.56000000e+02 
94.684   2.98000000e+02 
94.648   3.07000000e+02 
94.612   2.89000000e+02 
94.576   2.66000000e+02 
94.540   2.62000000e+02 
94.504   2.54000000e+02 
94.468   2.09000000e+02 
94.432   1.97000000e+02 
94.396   2.01000000e+02 
94.360   1.88000000e+02 
94.324   1.94000000e+02 
94.288   2.07000000e+02 
94.252   1.89000000e+02 
94.216   1.83000000e+02 
94.180   1.84000000e+02 
94.145   1.69000000e+02 
94.109   1.73000000e+02 
94.073   1.48000000e+02 
94.037   1.58000000e+02 
94.001   1.70000000e+02 
93.965   1.87000000e+02 
93.929   1.56000000e+02 
93.893   1.54000000e+02 
93.857   1.45000000e+02 
93.821   1.71000000e+02 
93.785   1.50000000e+02 
93.749   1.76000000e+02 
93.713   1.55000000e+02 
93.677   1.62000000e+02 
93.641   1.51000000e+02 
93.605   1.74000000e+02 
93.570   1.53000000e+02 
93.534   1.85000000e+02 
93.498   1.80000000e+02 
93.462   1.69000000e+02 
93.426   1.77000000e+02 
93.390   1.87000000e+02 
93.354   1.83000000e+02 
93.318   1.81000000e+02 
93.282   1.87000000e+02 
93.246   2.22000000e+02 
93.210   2.01000000e+02 
93.174   1.96000000e+02 
93.138   2.50000000e+02 
93.102   2.32000000e+02 
93.066   2.07000000e+02 
93.030   2.68000000e+02 
92.995   2.40000000e+02 
92.959   2.56000000e+02 
92.923   2.73000000e+02 
92.887   2.82000000e+02 
92.851   2.88000000e+02 
92.815   3.15000000e+02 
92.779   3.51000000e+02 
92.743   3.24000000e+02 
92.707   3.72000000e+02 
92.671   3.97000000e+02 
92.635   3.78000000e+02 
92.599   4.05000000e+02 
92.563   4.43000000e+02 
92.527   4.43000000e+02 
92.491   4.29000000e+02 
92.455   4.77000000e+02 
92.420   4.82000000e+02 
92.384   4.84000000e+02 
92.348   5.30000000e+02 
92.312   5.65000000e+02 
92.276   5.36000000e+02 
92.240   6.02000000e+02 
92.204   6.07000000e+02 
92.168   6.64000000e+02 
92.132   6.51000000e+02 
92.096   6.81000000e+02 
92.060   6.94000000e+02 
92.024   7.40000000e+02 
91.988   7.45000000e+02 
91.952   7.56000000e+02 
91.916   8.41000000e+02 
91.880   8.43000000e+02 
91.845   8.66000000e+02 
91.809   8.85000000e+02 
91.773   8.50000000e+02 
91.737   9.19000000e+02 
91.701   9.03000000e+02 
91.665   9.56000000e+02 
91.629   9.05000000e+02 
91.593   8.99000000e+02 
91.557   9.07000000e+02 
91.521   8.63000000e+02 
91.485   8.60000000e+02 
91.449   7.89000000e+02 
91.413   7.93000000e+02 
91.377   7.48000000e+02 
91.341   6.95000000e+02 
91.305   6.21000000e+02 
91.270   6.27000000e+02 
91.234   5.29000000e+02 
91.198   5.41000000e+02 
91.162   5.26000000e+02 
91.126   4.43000000e+02 
91.090   3.64000000e+02 
91.054   3.51000000e+02 
91.018   3.30000000e+02 
90.982   2.96000000e+02 
90.946   2.44000000e+02 
90.910   2.54000000e+02 
90.874   2.16000000e+02 
90.838   2.16000000e+02 
90.802   1.88000000e+02 
90.766   1.83000000e+02 
90.730   1.89000000e+02 
90.695   1.76000000e+02 
90.659   1.58000000e+02 
90.623   1.49000000e+02 
90.587   1.22000000e+02 
90.551   1.50000000e+02 
90.515   1.27000000e+02 
90.479   1.03000000e+02 
90.443   1.12000000e+02 
90.407   1.04000000e+02 
90.371   1.08000000e+02 
90.335   1.15000000e+02 
90.299   9.60000000e+01 
90.263   7.80000000e+01 
90.227   1.01000000e+02 
90.191   9.40000000e+01 
90.155   1.04000000e+02 
90.120   7.50000000e+01 
90.084   7.10000000e+01 
90.048   7.80000000e+01 
90.012   8.80000000e+01 
89.976   8.10000000e+01 
89.940   7.60000000e+01 
89.904   8.50000000e+01 
89.868   6.30000000e+01 
89.832   7.60000000e+01 
89.796   7.40000000e+01 
89.760   6.90000000e+01 
89.724   6.40000000e+01 
89.688   8.10000000e+01 
89.652   8.10000000e+01 
89.616   8.20000000e+01 
89.580   4.70000000e+01 
89.545   6.00000000e+01 
89.509   7.70000000e+01 
89.473   6.40000000e+01 
89.437   6.00000000e+01 
89.401   5.30000000e+01 
89.365   7.40000000e+01 
89.329   6.20000000e+01 
89.293   7.50000000e+01 
89.257   8.10000000e+01 
89.221   6.50000000e+01 
89.185   5.00000000e+01 
89.149   5.40000000e+01 
89.113   5.50000000e+01 
89.077   5.30000000e+01 
89.041   4.10000000e+01 
89.005   6.20000000e+01 
88.970   5.20000000e+01 
88.934   5.30000000e+01 
88.898   5.90000000e+01 
88.862   5.00000000e+01 
88.826   5.70000000e+01 
88.790   5.40000000e+01 
88.754   6.00000000e+01 
88.718   5.00000000e+01 
88.682   3.80000000e+01 
88.646   6.00000000e+01 
88.610   4.50000000e+01 
88.574   5.10000000e+01 
88.538   4.50000000e+01 
88.502   4.90000000e+01 
88.466   5.30000000e+01 
88.430   5.00000000e+01 
88.395   4.80000000e+01 
88.359   5.10000000e+01 
88.323   5.60000000e+01 
88.287   5.80000000e+01 
88.251   6.40000000e+01 
88.215   5.10000000e+01 
88.179   6.40000000e+01 
88.143   6.10000000e+01 
88.107   5.10000000e+01 
88.071   4.80000000e+01 
88.035   6.00000000e+01 
87.999   4.30000000e+01 
87.963   5.00000000e+01 
87.927   4.00000000e+01 
87.891   5.10000000e+01 
87.855   4.80000000e+01 
87.820   5.50000000e+01 
87.784   5.40000000e+01 
87.748   5.40000000e+01 
87.712   4.80000000e+01 
87.676   6.00000000e+01 
87.640   4.10000000e+01 
87.604   5.60000000e+01 
87.568   5.90000000e+01 
87.532   4.90000000e+01 
87.496   5.90000000e+01 
87.460   4.10000000e+01 
87.424   3.60000000e+01 
87.388   6.10000000e+01 
87.352   4.90000000e+01 
87.316   4.10000000e+01 
87.280   5.30000000e+01 
87.245   5.30000000e+01 
87.209   4.70000000e+01 
87.173   4.50000000e+01 
87.137   4.90000000e+01 
87.101   6.10000000e+01 
87.065   5.80000000e+01 
87.029   5.30000000e+01 
86.993   4.30000000e+01 
86.957   4.00000000e+01 
86.921   5.60000000e+01 
86.885   5.70000000e+01 
86.849   4.30000000e+01 
86.813   5.40000000e+01 
86.777   5.60000000e+01 
86.741   5.00000000e+01 
86.705   4.80000000e+01 
86.670   5.50000000e+01 
86.634   5.50000000e+01 
86.598   5.10000000e+01 
86.562   5.60000000e+01 
86.526   4.90000000e+01 
86.490   4.00000000e+01 
86.454   4.30000000e+01 
86.418   6.20000000e+01 
86.382   5.40000000e+01 
86.346   4.70000000e+01 
86.310   4.90000000e+01 
86.274   6.70000000e+01 
86.238   5.30000000e+01 
86.202   5.30000000e+01 
86.166   4.00000000e+01 
86.130   5.00000000e+01 
86.095   4.20000000e+01 
86.059   5.20000000e+01 
86.023   4.10000000e+01 

