EXPERIMENT FILE
Version = 2

[ Experiment Parameters ]
Experiment Description= <none> 
Number_of_Regions_in_Experiment= 1 

Original_File_name= C:\alexesca\data\10122012_Au _4f_quick_38nuetral.xps 
Instrument= HP ESCA West
Date= 10-12-2012
Time=  16:35:18

[ Layer Parameters ]
Layer_Type= XPS

[ Region 1 Parameters ]
Region_Description = Au quick Dithered Scan Test        
BEcenter(eV) = 91.000000
BEwidth(eV) = 10.000000
BEstep(eV) = 0.035937
Dwell_Time(sec) = 0.500000
N_o_scans = 1  
N_o_Channels = 278  
Scan_mode = 0  (DITHERED)

[ L= 1 R= 1 ]
BEcenter= 91.000  
BEwidth= -9.955  
Excitation= 1486.600
Time_p_channel= 128.000 
Size= 278
95.977   1.49000000e+02 
95.941   1.49000000e+02 
95.905   1.61000000e+02 
95.870   1.44000000e+02 
95.834   1.42000000e+02 
95.798   1.44000000e+02 
95.762   1.73000000e+02 
95.726   1.76000000e+02 
95.690   1.79000000e+02 
95.654   1.86000000e+02 
95.618   2.19000000e+02 
95.582   1.91000000e+02 
95.546   2.00000000e+02 
95.510   2.08000000e+02 
95.474   2.33000000e+02 
95.438   2.50000000e+02 
95.402   2.38000000e+02 
95.366   2.68000000e+02 
95.330   2.76000000e+02 
95.295   2.63000000e+02 
95.259   2.62000000e+02 
95.223   2.86000000e+02 
95.187   2.91000000e+02 
95.151   3.06000000e+02 
95.115   3.44000000e+02 
95.079   3.69000000e+02 
95.043   3.44000000e+02 
95.007   3.69000000e+02 
94.971   3.55000000e+02 
94.935   4.34000000e+02 
94.899   3.76000000e+02 
94.863   4.30000000e+02 
94.827   4.39000000e+02 
94.791   4.43000000e+02 
94.755   4.61000000e+02 
94.720   4.53000000e+02 
94.684   4.71000000e+02 
94.648   4.39000000e+02 
94.612   5.06000000e+02 
94.576   4.84000000e+02 
94.540   4.67000000e+02 
94.504   5.25000000e+02 
94.468   4.81000000e+02 
94.432   4.64000000e+02 
94.396   4.20000000e+02 
94.360   4.42000000e+02 
94.324   4.08000000e+02 
94.288   3.84000000e+02 
94.252   3.75000000e+02 
94.216   3.26000000e+02 
94.180   3.27000000e+02 
94.145   2.68000000e+02 
94.109   2.82000000e+02 
94.073   2.30000000e+02 
94.037   2.02000000e+02 
94.001   2.11000000e+02 
93.965   1.96000000e+02 
93.929   1.67000000e+02 
93.893   1.58000000e+02 
93.857   1.58000000e+02 
93.821   1.51000000e+02 
93.785   1.45000000e+02 
93.749   1.31000000e+02 
93.713   1.11000000e+02 
93.677   1.21000000e+02 
93.641   1.06000000e+02 
93.605   1.15000000e+02 
93.570   1.20000000e+02 
93.534   7.90000000e+01 
93.498   1.07000000e+02 
93.462   9.20000000e+01 
93.426   8.30000000e+01 
93.390   9.10000000e+01 
93.354   9.50000000e+01 
93.318   9.20000000e+01 
93.282   1.08000000e+02 
93.246   1.11000000e+02 
93.210   8.80000000e+01 
93.174   8.40000000e+01 
93.138   1.07000000e+02 
93.102   9.30000000e+01 
93.066   9.50000000e+01 
93.030   8.90000000e+01 
92.995   1.02000000e+02 
92.959   9.20000000e+01 
92.923   1.07000000e+02 
92.887   8.20000000e+01 
92.851   1.11000000e+02 
92.815   1.06000000e+02 
92.779   1.04000000e+02 
92.743   9.20000000e+01 
92.707   9.70000000e+01 
92.671   1.07000000e+02 
92.635   1.02000000e+02 
92.599   1.17000000e+02 
92.563   1.08000000e+02 
92.527   1.17000000e+02 
92.491   1.19000000e+02 
92.455   1.59000000e+02 
92.420   1.28000000e+02 
92.384   1.32000000e+02 
92.348   1.19000000e+02 
92.312   1.51000000e+02 
92.276   1.54000000e+02 
92.240   1.45000000e+02 
92.204   1.56000000e+02 
92.168   1.65000000e+02 
92.132   1.44000000e+02 
92.096   1.69000000e+02 
92.060   1.95000000e+02 
92.024   1.87000000e+02 
91.988   2.02000000e+02 
91.952   2.12000000e+02 
91.916   1.95000000e+02 
91.880   2.11000000e+02 
91.845   2.01000000e+02 
91.809   2.47000000e+02 
91.773   2.52000000e+02 
91.737   2.82000000e+02 
91.701   2.89000000e+02 
91.665   2.96000000e+02 
91.629   3.08000000e+02 
91.593   3.25000000e+02 
91.557   3.47000000e+02 
91.521   3.81000000e+02 
91.485   3.62000000e+02 
91.449   3.96000000e+02 
91.413   3.95000000e+02 
91.377   4.56000000e+02 
91.341   4.47000000e+02 
91.305   4.21000000e+02 
91.270   5.02000000e+02 
91.234   4.86000000e+02 
91.198   4.85000000e+02 
91.162   4.85000000e+02 
91.126   5.40000000e+02 
91.090   5.14000000e+02 
91.054   5.97000000e+02 
91.018   5.86000000e+02 
90.982   5.90000000e+02 
90.946   6.23000000e+02 
90.910   6.23000000e+02 
90.874   5.78000000e+02 
90.838   5.86000000e+02 
90.802   5.94000000e+02 
90.766   5.81000000e+02 
90.730   5.59000000e+02 
90.695   4.77000000e+02 
90.659   4.89000000e+02 
90.623   4.84000000e+02 
90.587   4.25000000e+02 
90.551   3.91000000e+02 
90.515   3.77000000e+02 
90.479   3.15000000e+02 
90.443   2.82000000e+02 
90.407   2.39000000e+02 
90.371   2.44000000e+02 
90.335   2.34000000e+02 
90.299   1.85000000e+02 
90.263   1.72000000e+02 
90.227   1.50000000e+02 
90.191   1.42000000e+02 
90.155   1.35000000e+02 
90.120   1.27000000e+02 
90.084   1.00000000e+02 
90.048   1.00000000e+02 
90.012   7.10000000e+01 
89.976   9.00000000e+01 
89.940   7.10000000e+01 
89.904   9.20000000e+01 
89.868   8.60000000e+01 
89.832   7.30000000e+01 
89.796   7.60000000e+01 
89.760   6.40000000e+01 
89.724   6.40000000e+01 
89.688   6.30000000e+01 
89.652   6.30000000e+01 
89.616   5.60000000e+01 
89.580   6.20000000e+01 
89.545   4.50000000e+01 
89.509   5.10000000e+01 
89.473   4.40000000e+01 
89.437   5.10000000e+01 
89.401   4.90000000e+01 
89.365   3.70000000e+01 
89.329   6.10000000e+01 
89.293   5.00000000e+01 
89.257   4.60000000e+01 
89.221   4.50000000e+01 
89.185   4.70000000e+01 
89.149   3.30000000e+01 
89.113   4.90000000e+01 
89.077   6.10000000e+01 
89.041   5.50000000e+01 
89.005   4.80000000e+01 
88.970   5.40000000e+01 
88.934   4.10000000e+01 
88.898   4.20000000e+01 
88.862   2.80000000e+01 
88.826   5.00000000e+01 
88.790   3.30000000e+01 
88.754   3.50000000e+01 
88.718   3.30000000e+01 
88.682   4.20000000e+01 
88.646   3.60000000e+01 
88.610   3.00000000e+01 
88.574   3.30000000e+01 
88.538   4.70000000e+01 
88.502   3.90000000e+01 
88.466   3.60000000e+01 
88.430   3.00000000e+01 
88.395   3.70000000e+01 
88.359   2.70000000e+01 
88.323   3.40000000e+01 
88.287   4.30000000e+01 
88.251   3.40000000e+01 
88.215   3.60000000e+01 
88.179   3.30000000e+01 
88.143   2.90000000e+01 
88.107   2.40000000e+01 
88.071   3.70000000e+01 
88.035   3.90000000e+01 
87.999   4.00000000e+01 
87.963   3.70000000e+01 
87.927   3.20000000e+01 
87.891   3.60000000e+01 
87.855   3.50000000e+01 
87.820   3.10000000e+01 
87.784   4.40000000e+01 
87.748   3.10000000e+01 
87.712   4.00000000e+01 
87.676   3.10000000e+01 
87.640   3.50000000e+01 
87.604   4.10000000e+01 
87.568   3.70000000e+01 
87.532   4.50000000e+01 
87.496   4.00000000e+01 
87.460   4.90000000e+01 
87.424   3.30000000e+01 
87.388   3.80000000e+01 
87.352   2.50000000e+01 
87.316   3.60000000e+01 
87.280   3.60000000e+01 
87.245   3.80000000e+01 
87.209   3.30000000e+01 
87.173   3.00000000e+01 
87.137   2.30000000e+01 
87.101   2.60000000e+01 
87.065   3.70000000e+01 
87.029   3.50000000e+01 
86.993   3.80000000e+01 
86.957   2.40000000e+01 
86.921   3.90000000e+01 
86.885   3.50000000e+01 
86.849   3.10000000e+01 
86.813   3.20000000e+01 
86.777   3.10000000e+01 
86.741   3.90000000e+01 
86.705   4.70000000e+01 
86.670   4.60000000e+01 
86.634   3.10000000e+01 
86.598   2.80000000e+01 
86.562   3.20000000e+01 
86.526   3.20000000e+01 
86.490   3.90000000e+01 
86.454   3.90000000e+01 
86.418   3.20000000e+01 
86.382   2.70000000e+01 
86.346   2.80000000e+01 
86.310   3.30000000e+01 
86.274   3.80000000e+01 
86.238   2.30000000e+01 
86.202   4.00000000e+01 
86.166   3.10000000e+01 
86.130   3.00000000e+01 
86.095   4.20000000e+01 
86.059   4.80000000e+01 
86.023   4.20000000e+01 

