EXPERIMENT FILE
Version = 2

[ Experiment Parameters ]
Experiment Description= <none> 
Number_of_Regions_in_Experiment= 1 

Original_File_name= C:\alexesca\data\10172012_Au _4f_30deg_Dithered.xps 
Instrument= HP ESCA West
Date= 10-17-2012
Time=  15:08:44

[ Layer Parameters ]
Layer_Type= XPS

[ Region 1 Parameters ]
Region_Description = Au 4f Dithered 93eV Center 9.2eV Width
BEcenter(eV) = 93.000000
BEwidth(eV) = 9.200000
BEstep(eV) = 0.035937
Dwell_Time(sec) = 1.000000
N_o_scans = 1  
N_o_Channels = 256  
Scan_mode = 0  (DITHERED)

[ L= 1 R= 1 ]
BEcenter= 93.000  
BEwidth= -9.164  
Excitation= 1486.600
Time_p_channel= 256.000 
Size= 256
97.582   1.10000000e+02 
97.546   8.10000000e+01 
97.510   1.16000000e+02 
97.474   1.18000000e+02 
97.438   9.10000000e+01 
97.402   1.13000000e+02 
97.366   9.90000000e+01 
97.330   1.04000000e+02 
97.295   1.33000000e+02 
97.259   1.16000000e+02 
97.223   1.20000000e+02 
97.187   9.40000000e+01 
97.151   1.10000000e+02 
97.115   1.19000000e+02 
97.079   1.17000000e+02 
97.043   1.26000000e+02 
97.007   1.16000000e+02 
96.971   1.21000000e+02 
96.935   1.08000000e+02 
96.899   1.03000000e+02 
96.863   1.18000000e+02 
96.827   1.14000000e+02 
96.791   1.22000000e+02 
96.755   1.11000000e+02 
96.720   1.24000000e+02 
96.684   1.28000000e+02 
96.648   1.12000000e+02 
96.612   1.47000000e+02 
96.576   1.13000000e+02 
96.540   1.21000000e+02 
96.504   1.36000000e+02 
96.468   1.37000000e+02 
96.432   1.25000000e+02 
96.396   1.58000000e+02 
96.360   1.38000000e+02 
96.324   1.46000000e+02 
96.288   1.71000000e+02 
96.252   1.67000000e+02 
96.216   1.82000000e+02 
96.180   1.69000000e+02 
96.145   1.84000000e+02 
96.109   1.86000000e+02 
96.073   1.81000000e+02 
96.037   1.59000000e+02 
96.001   1.70000000e+02 
95.965   2.06000000e+02 
95.929   1.87000000e+02 
95.893   2.02000000e+02 
95.857   2.34000000e+02 
95.821   2.24000000e+02 
95.785   2.55000000e+02 
95.749   2.32000000e+02 
95.713   2.73000000e+02 
95.677   2.96000000e+02 
95.641   3.04000000e+02 
95.605   2.96000000e+02 
95.570   3.25000000e+02 
95.534   3.30000000e+02 
95.498   3.61000000e+02 
95.462   3.67000000e+02 
95.426   3.57000000e+02 
95.390   4.23000000e+02 
95.354   4.40000000e+02 
95.318   4.26000000e+02 
95.282   4.52000000e+02 
95.246   4.72000000e+02 
95.210   5.05000000e+02 
95.174   5.20000000e+02 
95.138   5.54000000e+02 
95.102   5.23000000e+02 
95.066   5.42000000e+02 
95.030   5.81000000e+02 
94.995   5.71000000e+02 
94.959   5.94000000e+02 
94.923   5.73000000e+02 
94.887   5.40000000e+02 
94.851   5.23000000e+02 
94.815   5.25000000e+02 
94.779   5.19000000e+02 
94.743   4.77000000e+02 
94.707   4.49000000e+02 
94.671   4.25000000e+02 
94.635   3.94000000e+02 
94.599   3.98000000e+02 
94.563   3.39000000e+02 
94.527   3.13000000e+02 
94.491   2.91000000e+02 
94.455   2.67000000e+02 
94.420   2.26000000e+02 
94.384   2.28000000e+02 
94.348   2.13000000e+02 
94.312   1.95000000e+02 
94.276   1.73000000e+02 
94.240   1.61000000e+02 
94.204   1.74000000e+02 
94.168   1.53000000e+02 
94.132   1.69000000e+02 
94.096   1.40000000e+02 
94.060   1.34000000e+02 
94.024   1.39000000e+02 
93.988   1.26000000e+02 
93.952   1.32000000e+02 
93.916   1.29000000e+02 
93.880   1.20000000e+02 
93.845   9.70000000e+01 
93.809   1.12000000e+02 
93.773   1.26000000e+02 
93.737   9.30000000e+01 
93.701   1.01000000e+02 
93.665   9.90000000e+01 
93.629   9.30000000e+01 
93.593   9.10000000e+01 
93.557   1.07000000e+02 
93.521   1.08000000e+02 
93.485   1.00000000e+02 
93.449   1.18000000e+02 
93.413   1.09000000e+02 
93.377   1.01000000e+02 
93.341   9.20000000e+01 
93.305   1.05000000e+02 
93.270   1.04000000e+02 
93.234   1.01000000e+02 
93.198   1.12000000e+02 
93.162   1.09000000e+02 
93.126   8.20000000e+01 
93.090   1.24000000e+02 
93.054   1.14000000e+02 
93.018   1.25000000e+02 
92.982   1.16000000e+02 
92.946   1.36000000e+02 
92.910   1.31000000e+02 
92.874   1.18000000e+02 
92.838   1.22000000e+02 
92.802   1.17000000e+02 
92.766   1.20000000e+02 
92.730   1.37000000e+02 
92.695   1.59000000e+02 
92.659   1.48000000e+02 
92.623   1.59000000e+02 
92.587   1.69000000e+02 
92.551   1.76000000e+02 
92.515   1.35000000e+02 
92.479   1.78000000e+02 
92.443   1.66000000e+02 
92.407   1.68000000e+02 
92.371   2.12000000e+02 
92.335   1.75000000e+02 
92.299   1.90000000e+02 
92.263   2.26000000e+02 
92.227   2.44000000e+02 
92.191   2.24000000e+02 
92.155   2.74000000e+02 
92.120   2.76000000e+02 
92.084   2.95000000e+02 
92.048   3.13000000e+02 
92.012   2.96000000e+02 
91.976   3.17000000e+02 
91.940   3.48000000e+02 
91.904   3.92000000e+02 
91.868   3.94000000e+02 
91.832   4.19000000e+02 
91.796   4.71000000e+02 
91.760   4.74000000e+02 
91.724   4.81000000e+02 
91.688   4.91000000e+02 
91.652   4.91000000e+02 
91.616   5.35000000e+02 
91.580   5.53000000e+02 
91.545   6.28000000e+02 
91.509   6.03000000e+02 
91.473   6.62000000e+02 
91.437   6.64000000e+02 
91.401   6.97000000e+02 
91.365   7.11000000e+02 
91.329   6.91000000e+02 
91.293   7.09000000e+02 
91.257   6.70000000e+02 
91.221   6.55000000e+02 
91.185   6.12000000e+02 
91.149   6.23000000e+02 
91.113   5.88000000e+02 
91.077   6.20000000e+02 
91.041   5.23000000e+02 
91.005   5.25000000e+02 
90.970   4.35000000e+02 
90.934   4.10000000e+02 
90.898   3.42000000e+02 
90.862   3.48000000e+02 
90.826   3.09000000e+02 
90.790   2.63000000e+02 
90.754   2.47000000e+02 
90.718   1.80000000e+02 
90.682   1.85000000e+02 
90.646   1.80000000e+02 
90.610   1.68000000e+02 
90.574   1.58000000e+02 
90.538   1.50000000e+02 
90.502   1.31000000e+02 
90.466   1.22000000e+02 
90.430   1.06000000e+02 
90.395   1.02000000e+02 
90.359   9.40000000e+01 
90.323   9.20000000e+01 
90.287   1.02000000e+02 
90.251   8.10000000e+01 
90.215   8.50000000e+01 
90.179   8.70000000e+01 
90.143   7.30000000e+01 
90.107   7.90000000e+01 
90.071   7.40000000e+01 
90.035   8.00000000e+01 
89.999   6.50000000e+01 
89.963   4.80000000e+01 
89.927   6.80000000e+01 
89.891   7.00000000e+01 
89.855   7.30000000e+01 
89.820   7.10000000e+01 
89.784   7.20000000e+01 
89.748   5.20000000e+01 
89.712   5.90000000e+01 
89.676   6.50000000e+01 
89.640   7.10000000e+01 
89.604   5.70000000e+01 
89.568   6.20000000e+01 
89.532   7.70000000e+01 
89.496   5.10000000e+01 
89.460   5.50000000e+01 
89.424   5.40000000e+01 
89.388   5.50000000e+01 
89.352   5.80000000e+01 
89.316   5.00000000e+01 
89.280   6.20000000e+01 
89.245   5.30000000e+01 
89.209   4.90000000e+01 
89.173   7.10000000e+01 
89.137   5.00000000e+01 
89.101   6.80000000e+01 
89.065   6.70000000e+01 
89.029   4.60000000e+01 
88.993   5.20000000e+01 
88.957   5.20000000e+01 
88.921   5.70000000e+01 
88.885   5.40000000e+01 
88.849   6.30000000e+01 
88.813   4.60000000e+01 
88.777   4.70000000e+01 
88.741   5.90000000e+01 
88.705   4.70000000e+01 
88.670   5.70000000e+01 
88.634   5.20000000e+01 
88.598   5.70000000e+01 
88.562   4.60000000e+01 
88.526   5.10000000e+01 
88.490   4.40000000e+01 
88.454   5.30000000e+01 
88.418   3.90000000e+01 

