EXPERIMENT FILE
Version = 2

[ Experiment Parameters ]
Experiment Description= <none> 
Number_of_Regions_in_Experiment= 1 

Original_File_name= C:\alexesca\data\10172012_Au _4f_58nuetral-28.xps 
Instrument= HP ESCA West
Date= 10-17-2012
Time=  13:16:44

[ Layer Parameters ]
Layer_Type= XPS

[ Region 1 Parameters ]
Region_Description = Au 4f Dithered Scan                
BEcenter(eV) = 93.000000
BEwidth(eV) = 10.000000
BEstep(eV) = 0.035937
Dwell_Time(sec) = 1.000000
N_o_scans = 1  
N_o_Channels = 278  
Scan_mode = 0  (DITHERED)

[ L= 1 R= 1 ]
BEcenter= 93.000  
BEwidth= -9.955  
Excitation= 1486.600
Time_p_channel= 256.000 
Size= 278
97.977   1.04000000e+02 
97.941   1.26000000e+02 
97.905   1.39000000e+02 
97.870   1.13000000e+02 
97.834   1.00000000e+02 
97.798   1.26000000e+02 
97.762   1.28000000e+02 
97.726   1.13000000e+02 
97.690   1.04000000e+02 
97.654   1.08000000e+02 
97.618   1.16000000e+02 
97.582   1.18000000e+02 
97.546   1.04000000e+02 
97.510   1.17000000e+02 
97.474   1.09000000e+02 
97.438   1.22000000e+02 
97.402   1.07000000e+02 
97.366   1.24000000e+02 
97.330   1.30000000e+02 
97.295   9.90000000e+01 
97.259   1.18000000e+02 
97.223   1.27000000e+02 
97.187   1.06000000e+02 
97.151   1.11000000e+02 
97.115   1.19000000e+02 
97.079   1.01000000e+02 
97.043   1.23000000e+02 
97.007   1.23000000e+02 
96.971   1.37000000e+02 
96.935   1.14000000e+02 
96.899   1.36000000e+02 
96.863   1.02000000e+02 
96.827   1.26000000e+02 
96.791   1.14000000e+02 
96.755   1.08000000e+02 
96.720   1.17000000e+02 
96.684   1.57000000e+02 
96.648   1.32000000e+02 
96.612   1.46000000e+02 
96.576   1.26000000e+02 
96.540   1.40000000e+02 
96.504   1.35000000e+02 
96.468   1.32000000e+02 
96.432   1.52000000e+02 
96.396   1.44000000e+02 
96.360   1.53000000e+02 
96.324   1.64000000e+02 
96.288   1.47000000e+02 
96.252   1.47000000e+02 
96.216   1.47000000e+02 
96.180   1.68000000e+02 
96.145   1.91000000e+02 
96.109   1.84000000e+02 
96.073   1.89000000e+02 
96.037   1.79000000e+02 
96.001   1.80000000e+02 
95.965   1.98000000e+02 
95.929   2.11000000e+02 
95.893   2.05000000e+02 
95.857   1.96000000e+02 
95.821   2.63000000e+02 
95.785   2.20000000e+02 
95.749   2.65000000e+02 
95.713   2.96000000e+02 
95.677   2.82000000e+02 
95.641   2.70000000e+02 
95.605   2.98000000e+02 
95.570   3.41000000e+02 
95.534   3.19000000e+02 
95.498   3.46000000e+02 
95.462   3.08000000e+02 
95.426   3.30000000e+02 
95.390   4.02000000e+02 
95.354   4.31000000e+02 
95.318   4.49000000e+02 
95.282   4.52000000e+02 
95.246   4.64000000e+02 
95.210   4.43000000e+02 
95.174   5.04000000e+02 
95.138   4.88000000e+02 
95.102   5.46000000e+02 
95.066   5.74000000e+02 
95.030   5.77000000e+02 
94.995   6.09000000e+02 
94.959   5.93000000e+02 
94.923   6.23000000e+02 
94.887   6.01000000e+02 
94.851   6.23000000e+02 
94.815   6.08000000e+02 
94.779   5.83000000e+02 
94.743   5.53000000e+02 
94.707   5.71000000e+02 
94.671   5.20000000e+02 
94.635   4.79000000e+02 
94.599   4.77000000e+02 
94.563   4.31000000e+02 
94.527   4.04000000e+02 
94.491   4.04000000e+02 
94.455   3.35000000e+02 
94.420   3.09000000e+02 
94.384   2.95000000e+02 
94.348   2.85000000e+02 
94.312   2.75000000e+02 
94.276   2.14000000e+02 
94.240   1.97000000e+02 
94.204   2.02000000e+02 
94.168   1.74000000e+02 
94.132   1.76000000e+02 
94.096   1.74000000e+02 
94.060   1.53000000e+02 
94.024   1.41000000e+02 
93.988   1.47000000e+02 
93.952   1.53000000e+02 
93.916   1.33000000e+02 
93.880   1.46000000e+02 
93.845   1.24000000e+02 
93.809   1.22000000e+02 
93.773   1.02000000e+02 
93.737   1.14000000e+02 
93.701   1.47000000e+02 
93.665   1.12000000e+02 
93.629   1.20000000e+02 
93.593   1.17000000e+02 
93.557   1.26000000e+02 
93.521   1.07000000e+02 
93.485   1.24000000e+02 
93.449   1.40000000e+02 
93.413   1.00000000e+02 
93.377   1.17000000e+02 
93.341   1.05000000e+02 
93.305   1.14000000e+02 
93.270   1.07000000e+02 
93.234   1.17000000e+02 
93.198   9.90000000e+01 
93.162   1.06000000e+02 
93.126   1.16000000e+02 
93.090   1.14000000e+02 
93.054   1.19000000e+02 
93.018   1.09000000e+02 
92.982   1.29000000e+02 
92.946   1.17000000e+02 
92.910   1.38000000e+02 
92.874   1.23000000e+02 
92.838   1.26000000e+02 
92.802   1.21000000e+02 
92.766   1.35000000e+02 
92.730   1.15000000e+02 
92.695   1.28000000e+02 
92.659   1.42000000e+02 
92.623   1.32000000e+02 
92.587   1.51000000e+02 
92.551   1.66000000e+02 
92.515   1.82000000e+02 
92.479   1.75000000e+02 
92.443   1.67000000e+02 
92.407   1.70000000e+02 
92.371   2.17000000e+02 
92.335   2.07000000e+02 
92.299   1.96000000e+02 
92.263   2.24000000e+02 
92.227   2.32000000e+02 
92.191   2.30000000e+02 
92.155   2.45000000e+02 
92.120   2.66000000e+02 
92.084   2.46000000e+02 
92.048   2.82000000e+02 
92.012   2.87000000e+02 
91.976   3.15000000e+02 
91.940   3.50000000e+02 
91.904   3.46000000e+02 
91.868   3.90000000e+02 
91.832   3.98000000e+02 
91.796   4.11000000e+02 
91.760   4.40000000e+02 
91.724   4.45000000e+02 
91.688   4.89000000e+02 
91.652   4.95000000e+02 
91.616   5.50000000e+02 
91.580   5.81000000e+02 
91.545   5.78000000e+02 
91.509   6.16000000e+02 
91.473   6.45000000e+02 
91.437   6.54000000e+02 
91.401   6.68000000e+02 
91.365   6.94000000e+02 
91.329   6.97000000e+02 
91.293   7.91000000e+02 
91.257   7.14000000e+02 
91.221   7.54000000e+02 
91.185   7.37000000e+02 
91.149   7.52000000e+02 
91.113   7.38000000e+02 
91.077   6.92000000e+02 
91.041   7.07000000e+02 
91.005   6.39000000e+02 
90.970   6.12000000e+02 
90.934   5.36000000e+02 
90.898   4.87000000e+02 
90.862   4.76000000e+02 
90.826   4.44000000e+02 
90.790   3.63000000e+02 
90.754   3.72000000e+02 
90.718   3.04000000e+02 
90.682   2.53000000e+02 
90.646   2.59000000e+02 
90.610   2.01000000e+02 
90.574   1.95000000e+02 
90.538   1.98000000e+02 
90.502   1.78000000e+02 
90.466   1.60000000e+02 
90.430   1.31000000e+02 
90.395   1.35000000e+02 
90.359   1.26000000e+02 
90.323   1.42000000e+02 
90.287   1.27000000e+02 
90.251   1.04000000e+02 
90.215   9.90000000e+01 
90.179   1.08000000e+02 
90.143   8.80000000e+01 
90.107   7.60000000e+01 
90.071   9.10000000e+01 
90.035   9.40000000e+01 
89.999   6.40000000e+01 
89.963   8.40000000e+01 
89.927   8.30000000e+01 
89.891   7.40000000e+01 
89.855   9.20000000e+01 
89.820   6.30000000e+01 
89.784   8.10000000e+01 
89.748   6.70000000e+01 
89.712   6.10000000e+01 
89.676   7.30000000e+01 
89.640   6.60000000e+01 
89.604   5.80000000e+01 
89.568   8.50000000e+01 
89.532   6.50000000e+01 
89.496   6.30000000e+01 
89.460   6.90000000e+01 
89.424   6.00000000e+01 
89.388   6.90000000e+01 
89.352   6.10000000e+01 
89.316   6.20000000e+01 
89.280   6.10000000e+01 
89.245   5.30000000e+01 
89.209   6.30000000e+01 
89.173   5.90000000e+01 
89.137   5.80000000e+01 
89.101   5.90000000e+01 
89.065   6.30000000e+01 
89.029   5.80000000e+01 
88.993   5.50000000e+01 
88.957   5.60000000e+01 
88.921   5.40000000e+01 
88.885   5.70000000e+01 
88.849   5.80000000e+01 
88.813   6.60000000e+01 
88.777   6.30000000e+01 
88.741   5.80000000e+01 
88.705   4.70000000e+01 
88.670   5.70000000e+01 
88.634   6.00000000e+01 
88.598   4.80000000e+01 
88.562   5.30000000e+01 
88.526   6.70000000e+01 
88.490   6.10000000e+01 
88.454   7.10000000e+01 
88.418   6.20000000e+01 
88.382   6.70000000e+01 
88.346   5.50000000e+01 
88.310   4.80000000e+01 
88.274   5.90000000e+01 
88.238   6.80000000e+01 
88.202   6.10000000e+01 
88.166   4.80000000e+01 
88.130   6.90000000e+01 
88.095   5.00000000e+01 
88.059   5.80000000e+01 
88.023   5.90000000e+01 

