EXPERIMENT FILE
Version = 2

[ Experiment Parameters ]
Experiment Description= <none> 
Number_of_Regions_in_Experiment= 1 

Original_File_name= C:\alexesca\data\10172012_Au _4f_30deg_Fixed.xps 
Instrument= HP ESCA West
Date= 10-17-2012
Time=  15:27:25

[ Layer Parameters ]
Layer_Type= XPS

[ Region 1 Parameters ]
Region_Description = Au 4f Fixed 93eV Center 9.2eV Width
BEcenter(eV) = 93.000000
BEwidth(eV) = 9.200000
BEstep(eV) = 0.035937
Dwell_Time(sec) = 32.000000
N_o_scans = 8  
N_o_Channels = 256  
Scan_mode = 1  (FIXED)

[ L= 1 R= 1 ]
BEcenter= 93.000  
BEwidth= -9.200  
Excitation= 1486.600
Time_p_channel= 256.000 
Size= 256
97.600   3.40000000e+01 
97.564   5.00000000e+01 
97.528   4.20000000e+01 
97.492   4.10000000e+01 
97.456   4.50000000e+01 
97.420   4.70000000e+01 
97.384   4.90000000e+01 
97.347   5.80000000e+01 
97.311   5.00000000e+01 
97.275   5.10000000e+01 
97.239   4.70000000e+01 
97.203   6.00000000e+01 
97.167   5.10000000e+01 
97.131   5.60000000e+01 
97.095   5.70000000e+01 
97.059   5.80000000e+01 
97.023   5.60000000e+01 
96.987   5.50000000e+01 
96.951   6.40000000e+01 
96.915   6.50000000e+01 
96.878   5.60000000e+01 
96.842   6.10000000e+01 
96.806   7.00000000e+01 
96.770   6.40000000e+01 
96.734   6.60000000e+01 
96.698   6.00000000e+01 
96.662   7.40000000e+01 
96.626   5.70000000e+01 
96.590   7.30000000e+01 
96.554   5.70000000e+01 
96.518   6.70000000e+01 
96.482   7.20000000e+01 
96.445   5.60000000e+01 
96.409   6.40000000e+01 
96.373   7.50000000e+01 
96.337   6.80000000e+01 
96.301   7.20000000e+01 
96.265   7.30000000e+01 
96.229   7.00000000e+01 
96.193   8.40000000e+01 
96.157   7.80000000e+01 
96.121   8.70000000e+01 
96.085   7.80000000e+01 
96.049   7.50000000e+01 
96.013   8.80000000e+01 
95.976   8.30000000e+01 
95.940   8.10000000e+01 
95.904   1.04000000e+02 
95.868   9.20000000e+01 
95.832   1.08000000e+02 
95.796   9.50000000e+01 
95.760   9.80000000e+01 
95.724   1.24000000e+02 
95.688   1.24000000e+02 
95.652   1.41000000e+02 
95.616   1.50000000e+02 
95.580   1.42000000e+02 
95.544   1.36000000e+02 
95.507   1.70000000e+02 
95.471   1.91000000e+02 
95.435   1.99000000e+02 
95.399   2.02000000e+02 
95.363   2.26000000e+02 
95.327   2.55000000e+02 
95.291   2.93000000e+02 
95.255   3.32000000e+02 
95.219   3.87000000e+02 
95.183   4.04000000e+02 
95.147   4.76000000e+02 
95.111   5.09000000e+02 
95.075   5.51000000e+02 
95.038   6.31000000e+02 
95.002   7.15000000e+02 
94.966   7.77000000e+02 
94.930   7.74000000e+02 
94.894   8.60000000e+02 
94.858   8.51000000e+02 
94.822   9.64000000e+02 
94.786   8.36000000e+02 
94.750   8.93000000e+02 
94.714   9.32000000e+02 
94.678   8.99000000e+02 
94.642   8.56000000e+02 
94.605   7.88000000e+02 
94.569   7.12000000e+02 
94.533   7.01000000e+02 
94.497   6.81000000e+02 
94.461   6.18000000e+02 
94.425   6.03000000e+02 
94.389   5.64000000e+02 
94.353   4.95000000e+02 
94.317   4.80000000e+02 
94.281   4.87000000e+02 
94.245   4.06000000e+02 
94.209   4.16000000e+02 
94.173   3.95000000e+02 
94.136   3.29000000e+02 
94.100   3.29000000e+02 
94.064   3.25000000e+02 
94.028   3.07000000e+02 
93.992   2.99000000e+02 
93.956   2.49000000e+02 
93.920   2.27000000e+02 
93.884   2.59000000e+02 
93.848   2.34000000e+02 
93.812   2.19000000e+02 
93.776   1.85000000e+02 
93.740   1.94000000e+02 
93.704   1.84000000e+02 
93.667   1.75000000e+02 
93.631   1.80000000e+02 
93.595   1.62000000e+02 
93.559   1.71000000e+02 
93.523   1.61000000e+02 
93.487   1.45000000e+02 
93.451   1.58000000e+02 
93.415   1.38000000e+02 
93.379   1.41000000e+02 
93.343   1.34000000e+02 
93.307   1.31000000e+02 
93.271   1.39000000e+02 
93.235   1.11000000e+02 
93.198   1.26000000e+02 
93.162   1.29000000e+02 
93.126   1.07000000e+02 
93.090   1.24000000e+02 
93.054   1.19000000e+02 
93.018   1.15000000e+02 
92.982   1.33000000e+02 
92.946   1.10000000e+02 
92.910   1.25000000e+02 
92.874   1.09000000e+02 
92.838   1.16000000e+02 
92.802   1.10000000e+02 
92.765   1.01000000e+02 
92.729   1.36000000e+02 
92.693   1.10000000e+02 
92.657   1.24000000e+02 
92.621   1.20000000e+02 
92.585   1.10000000e+02 
92.549   1.16000000e+02 
92.513   9.80000000e+01 
92.477   1.09000000e+02 
92.441   1.10000000e+02 
92.405   1.10000000e+02 
92.369   1.23000000e+02 
92.333   1.16000000e+02 
92.296   1.25000000e+02 
92.260   1.00000000e+02 
92.224   1.49000000e+02 
92.188   1.14000000e+02 
92.152   1.27000000e+02 
92.116   1.48000000e+02 
92.080   1.42000000e+02 
92.044   1.51000000e+02 
92.008   1.57000000e+02 
91.972   1.49000000e+02 
91.936   1.65000000e+02 
91.900   1.86000000e+02 
91.864   1.81000000e+02 
91.827   1.95000000e+02 
91.791   1.76000000e+02 
91.755   2.18000000e+02 
91.719   2.19000000e+02 
91.683   2.36000000e+02 
91.647   2.47000000e+02 
91.611   2.09000000e+02 
91.575   2.59000000e+02 
91.539   3.11000000e+02 
91.503   3.44000000e+02 
91.467   3.83000000e+02 
91.431   4.03000000e+02 
91.395   4.80000000e+02 
91.358   4.73000000e+02 
91.322   4.76000000e+02 
91.286   5.36000000e+02 
91.250   5.85000000e+02 
91.214   5.61000000e+02 
91.178   5.81000000e+02 
91.142   6.14000000e+02 
91.106   5.90000000e+02 
91.070   6.29000000e+02 
91.034   5.79000000e+02 
90.998   6.04000000e+02 
90.962   5.88000000e+02 
90.925   5.38000000e+02 
90.889   5.95000000e+02 
90.853   5.43000000e+02 
90.817   5.14000000e+02 
90.781   5.10000000e+02 
90.745   4.76000000e+02 
90.709   4.30000000e+02 
90.673   4.01000000e+02 
90.637   3.60000000e+02 
90.601   4.09000000e+02 
90.565   3.85000000e+02 
90.529   3.22000000e+02 
90.493   3.60000000e+02 
90.456   3.04000000e+02 
90.420   3.22000000e+02 
90.384   2.56000000e+02 
90.348   3.01000000e+02 
90.312   2.62000000e+02 
90.276   2.50000000e+02 
90.240   2.51000000e+02 
90.204   2.56000000e+02 
90.168   2.28000000e+02 
90.132   2.14000000e+02 
90.096   2.04000000e+02 
90.060   2.03000000e+02 
90.024   2.03000000e+02 
89.987   1.97000000e+02 
89.951   1.80000000e+02 
89.915   1.92000000e+02 
89.879   1.75000000e+02 
89.843   1.42000000e+02 
89.807   1.61000000e+02 
89.771   1.56000000e+02 
89.735   1.51000000e+02 
89.699   1.43000000e+02 
89.663   1.37000000e+02 
89.627   1.28000000e+02 
89.591   1.42000000e+02 
89.555   1.17000000e+02 
89.518   1.25000000e+02 
89.482   1.11000000e+02 
89.446   1.34000000e+02 
89.410   1.09000000e+02 
89.374   1.10000000e+02 
89.338   1.29000000e+02 
89.302   1.04000000e+02 
89.266   1.01000000e+02 
89.230   1.00000000e+02 
89.194   9.40000000e+01 
89.158   9.10000000e+01 
89.122   1.02000000e+02 
89.085   8.20000000e+01 
89.049   7.80000000e+01 
89.013   9.40000000e+01 
88.977   9.40000000e+01 
88.941   8.50000000e+01 
88.905   6.10000000e+01 
88.869   8.60000000e+01 
88.833   7.70000000e+01 
88.797   7.30000000e+01 
88.761   5.70000000e+01 
88.725   7.30000000e+01 
88.689   5.90000000e+01 
88.653   4.10000000e+01 
88.616   5.60000000e+01 
88.580   4.60000000e+01 
88.544   3.60000000e+01 
88.508   3.90000000e+01 
88.472   1.90000000e+01 
88.436   0.00000000e+00 
88.400   0.00000000e+00 

