EXPERIMENT FILE
Version = 2

[ Experiment Parameters ]
Experiment Description= <none> 
Number_of_Regions_in_Experiment= 1 

Original_File_name= C:\alexesca\data\10172012_Au _4f_58nuetral-38.xps 
Instrument= HP ESCA West
Date= 10-17-2012
Time=  13:27:53

[ Layer Parameters ]
Layer_Type= XPS

[ Region 1 Parameters ]
Region_Description = Au 4f Dithered Scan                
BEcenter(eV) = 93.000000
BEwidth(eV) = 10.000000
BEstep(eV) = 0.035937
Dwell_Time(sec) = 1.000000
N_o_scans = 1  
N_o_Channels = 278  
Scan_mode = 0  (DITHERED)

[ L= 1 R= 1 ]
BEcenter= 93.000  
BEwidth= -9.955  
Excitation= 1486.600
Time_p_channel= 256.000 
Size= 278
97.977   6.40000000e+01 
97.941   6.60000000e+01 
97.905   6.30000000e+01 
97.870   6.40000000e+01 
97.834   5.30000000e+01 
97.798   6.20000000e+01 
97.762   5.10000000e+01 
97.726   6.40000000e+01 
97.690   4.80000000e+01 
97.654   5.30000000e+01 
97.618   5.50000000e+01 
97.582   7.00000000e+01 
97.546   5.50000000e+01 
97.510   5.30000000e+01 
97.474   6.40000000e+01 
97.438   5.70000000e+01 
97.402   7.40000000e+01 
97.366   5.20000000e+01 
97.330   5.60000000e+01 
97.295   6.20000000e+01 
97.259   6.80000000e+01 
97.223   6.00000000e+01 
97.187   5.00000000e+01 
97.151   5.50000000e+01 
97.115   5.60000000e+01 
97.079   6.40000000e+01 
97.043   5.80000000e+01 
97.007   7.20000000e+01 
96.971   6.80000000e+01 
96.935   5.80000000e+01 
96.899   4.20000000e+01 
96.863   5.80000000e+01 
96.827   5.90000000e+01 
96.791   5.90000000e+01 
96.755   7.50000000e+01 
96.720   5.30000000e+01 
96.684   7.70000000e+01 
96.648   5.70000000e+01 
96.612   5.90000000e+01 
96.576   6.10000000e+01 
96.540   6.90000000e+01 
96.504   6.60000000e+01 
96.468   7.80000000e+01 
96.432   6.40000000e+01 
96.396   7.20000000e+01 
96.360   7.40000000e+01 
96.324   8.30000000e+01 
96.288   8.10000000e+01 
96.252   7.90000000e+01 
96.216   8.50000000e+01 
96.180   9.80000000e+01 
96.145   9.60000000e+01 
96.109   7.40000000e+01 
96.073   9.20000000e+01 
96.037   8.60000000e+01 
96.001   8.60000000e+01 
95.965   1.12000000e+02 
95.929   8.10000000e+01 
95.893   1.00000000e+02 
95.857   1.04000000e+02 
95.821   1.20000000e+02 
95.785   1.25000000e+02 
95.749   1.34000000e+02 
95.713   1.45000000e+02 
95.677   1.27000000e+02 
95.641   1.35000000e+02 
95.605   1.49000000e+02 
95.570   1.81000000e+02 
95.534   1.70000000e+02 
95.498   1.91000000e+02 
95.462   1.99000000e+02 
95.426   2.00000000e+02 
95.390   1.97000000e+02 
95.354   2.16000000e+02 
95.318   2.27000000e+02 
95.282   2.47000000e+02 
95.246   2.43000000e+02 
95.210   2.73000000e+02 
95.174   2.64000000e+02 
95.138   3.05000000e+02 
95.102   2.95000000e+02 
95.066   2.68000000e+02 
95.030   2.92000000e+02 
94.995   2.88000000e+02 
94.959   2.86000000e+02 
94.923   3.12000000e+02 
94.887   3.27000000e+02 
94.851   3.15000000e+02 
94.815   2.78000000e+02 
94.779   2.33000000e+02 
94.743   2.30000000e+02 
94.707   2.13000000e+02 
94.671   2.02000000e+02 
94.635   2.02000000e+02 
94.599   1.96000000e+02 
94.563   1.79000000e+02 
94.527   1.62000000e+02 
94.491   1.84000000e+02 
94.455   1.64000000e+02 
94.420   1.07000000e+02 
94.384   1.14000000e+02 
94.348   1.17000000e+02 
94.312   9.30000000e+01 
94.276   1.05000000e+02 
94.240   9.10000000e+01 
94.204   8.00000000e+01 
94.168   9.20000000e+01 
94.132   7.90000000e+01 
94.096   7.20000000e+01 
94.060   7.00000000e+01 
94.024   6.70000000e+01 
93.988   7.10000000e+01 
93.952   7.90000000e+01 
93.916   6.40000000e+01 
93.880   4.90000000e+01 
93.845   7.00000000e+01 
93.809   5.70000000e+01 
93.773   6.80000000e+01 
93.737   5.30000000e+01 
93.701   6.60000000e+01 
93.665   6.60000000e+01 
93.629   7.00000000e+01 
93.593   5.50000000e+01 
93.557   7.10000000e+01 
93.521   6.20000000e+01 
93.485   5.80000000e+01 
93.449   5.50000000e+01 
93.413   6.00000000e+01 
93.377   6.00000000e+01 
93.341   6.30000000e+01 
93.305   6.50000000e+01 
93.270   5.80000000e+01 
93.234   4.80000000e+01 
93.198   6.20000000e+01 
93.162   4.10000000e+01 
93.126   5.60000000e+01 
93.090   5.80000000e+01 
93.054   6.50000000e+01 
93.018   5.50000000e+01 
92.982   5.90000000e+01 
92.946   6.20000000e+01 
92.910   6.50000000e+01 
92.874   7.30000000e+01 
92.838   7.70000000e+01 
92.802   7.10000000e+01 
92.766   7.40000000e+01 
92.730   6.10000000e+01 
92.695   7.90000000e+01 
92.659   8.60000000e+01 
92.623   8.50000000e+01 
92.587   9.10000000e+01 
92.551   9.20000000e+01 
92.515   7.80000000e+01 
92.479   7.60000000e+01 
92.443   8.30000000e+01 
92.407   9.50000000e+01 
92.371   1.00000000e+02 
92.335   1.10000000e+02 
92.299   9.70000000e+01 
92.263   1.13000000e+02 
92.227   1.15000000e+02 
92.191   1.30000000e+02 
92.155   1.21000000e+02 
92.120   1.55000000e+02 
92.084   1.30000000e+02 
92.048   1.48000000e+02 
92.012   1.06000000e+02 
91.976   1.76000000e+02 
91.940   1.58000000e+02 
91.904   2.04000000e+02 
91.868   1.91000000e+02 
91.832   2.13000000e+02 
91.796   2.13000000e+02 
91.760   2.07000000e+02 
91.724   2.68000000e+02 
91.688   2.42000000e+02 
91.652   2.80000000e+02 
91.616   2.60000000e+02 
91.580   2.71000000e+02 
91.545   3.28000000e+02 
91.509   3.16000000e+02 
91.473   3.44000000e+02 
91.437   3.31000000e+02 
91.401   3.59000000e+02 
91.365   3.48000000e+02 
91.329   3.53000000e+02 
91.293   3.64000000e+02 
91.257   3.79000000e+02 
91.221   3.39000000e+02 
91.185   3.50000000e+02 
91.149   2.88000000e+02 
91.113   2.94000000e+02 
91.077   2.81000000e+02 
91.041   2.62000000e+02 
91.005   2.52000000e+02 
90.970   2.23000000e+02 
90.934   2.37000000e+02 
90.898   1.95000000e+02 
90.862   1.71000000e+02 
90.826   1.60000000e+02 
90.790   1.52000000e+02 
90.754   1.35000000e+02 
90.718   1.22000000e+02 
90.682   1.02000000e+02 
90.646   7.80000000e+01 
90.610   9.10000000e+01 
90.574   9.00000000e+01 
90.538   7.50000000e+01 
90.502   6.20000000e+01 
90.466   7.60000000e+01 
90.430   6.70000000e+01 
90.395   5.90000000e+01 
90.359   5.10000000e+01 
90.323   6.30000000e+01 
90.287   5.20000000e+01 
90.251   4.40000000e+01 
90.215   3.90000000e+01 
90.179   4.50000000e+01 
90.143   5.90000000e+01 
90.107   3.70000000e+01 
90.071   4.20000000e+01 
90.035   3.90000000e+01 
89.999   3.30000000e+01 
89.963   4.60000000e+01 
89.927   4.00000000e+01 
89.891   4.50000000e+01 
89.855   5.00000000e+01 
89.820   4.50000000e+01 
89.784   4.80000000e+01 
89.748   4.30000000e+01 
89.712   3.20000000e+01 
89.676   4.60000000e+01 
89.640   3.30000000e+01 
89.604   3.70000000e+01 
89.568   3.50000000e+01 
89.532   3.30000000e+01 
89.496   3.20000000e+01 
89.460   3.40000000e+01 
89.424   3.30000000e+01 
89.388   3.60000000e+01 
89.352   4.00000000e+01 
89.316   2.90000000e+01 
89.280   3.30000000e+01 
89.245   2.80000000e+01 
89.209   3.50000000e+01 
89.173   3.60000000e+01 
89.137   3.70000000e+01 
89.101   4.10000000e+01 
89.065   3.30000000e+01 
89.029   2.70000000e+01 
88.993   2.80000000e+01 
88.957   2.80000000e+01 
88.921   3.10000000e+01 
88.885   3.80000000e+01 
88.849   3.60000000e+01 
88.813   2.90000000e+01 
88.777   2.80000000e+01 
88.741   2.90000000e+01 
88.705   3.30000000e+01 
88.670   2.50000000e+01 
88.634   2.60000000e+01 
88.598   2.10000000e+01 
88.562   3.40000000e+01 
88.526   2.60000000e+01 
88.490   3.60000000e+01 
88.454   2.70000000e+01 
88.418   2.70000000e+01 
88.382   3.60000000e+01 
88.346   2.90000000e+01 
88.310   3.00000000e+01 
88.274   3.30000000e+01 
88.238   4.10000000e+01 
88.202   4.10000000e+01 
88.166   2.80000000e+01 
88.130   2.70000000e+01 
88.095   2.60000000e+01 
88.059   3.00000000e+01 
88.023   3.30000000e+01 

