EXPERIMENT FILE
Version = 2

[ Experiment Parameters ]
Experiment Description= <none> 
Number_of_Regions_in_Experiment= 1 

Original_File_name= C:\alexesca\data\10182012_Au _4f_58nuetral-38_Mono220.xps 
Instrument= HP ESCA West
Date= 10-18-2012
Time=  16:26:33

[ Layer Parameters ]
Layer_Type= XPS

[ Region 1 Parameters ]
Region_Description = Au 4f Dithered Scan                
BEcenter(eV) = 93.000000
BEwidth(eV) = 10.000000
BEstep(eV) = 0.035937
Dwell_Time(sec) = 1.000000
N_o_scans = 1  
N_o_Channels = 278  
Scan_mode = 0  (DITHERED)

[ L= 1 R= 1 ]
BEcenter= 93.000  
BEwidth= -9.955  
Excitation= 1486.600
Time_p_channel= 256.000 
Size= 278
97.977   5.20000000e+01 
97.941   4.90000000e+01 
97.905   6.70000000e+01 
97.870   4.70000000e+01 
97.834   5.10000000e+01 
97.798   5.20000000e+01 
97.762   5.10000000e+01 
97.726   6.40000000e+01 
97.690   6.30000000e+01 
97.654   6.50000000e+01 
97.618   5.10000000e+01 
97.582   4.80000000e+01 
97.546   5.60000000e+01 
97.510   4.70000000e+01 
97.474   6.00000000e+01 
97.438   6.10000000e+01 
97.402   6.60000000e+01 
97.366   5.80000000e+01 
97.330   5.20000000e+01 
97.295   6.00000000e+01 
97.259   6.00000000e+01 
97.223   4.30000000e+01 
97.187   5.10000000e+01 
97.151   6.00000000e+01 
97.115   5.80000000e+01 
97.079   5.10000000e+01 
97.043   6.20000000e+01 
97.007   4.60000000e+01 
96.971   6.40000000e+01 
96.935   5.10000000e+01 
96.899   5.40000000e+01 
96.863   5.90000000e+01 
96.827   6.60000000e+01 
96.791   6.40000000e+01 
96.755   8.80000000e+01 
96.720   6.50000000e+01 
96.684   5.70000000e+01 
96.648   7.10000000e+01 
96.612   6.80000000e+01 
96.576   5.00000000e+01 
96.540   6.80000000e+01 
96.504   6.10000000e+01 
96.468   7.20000000e+01 
96.432   7.80000000e+01 
96.396   7.20000000e+01 
96.360   8.00000000e+01 
96.324   7.90000000e+01 
96.288   8.20000000e+01 
96.252   8.40000000e+01 
96.216   8.40000000e+01 
96.180   9.20000000e+01 
96.145   9.00000000e+01 
96.109   9.50000000e+01 
96.073   8.90000000e+01 
96.037   9.70000000e+01 
96.001   1.05000000e+02 
95.965   1.06000000e+02 
95.929   1.03000000e+02 
95.893   1.29000000e+02 
95.857   1.17000000e+02 
95.821   1.22000000e+02 
95.785   1.64000000e+02 
95.749   1.55000000e+02 
95.713   1.73000000e+02 
95.677   1.58000000e+02 
95.641   1.47000000e+02 
95.605   1.77000000e+02 
95.570   1.65000000e+02 
95.534   1.89000000e+02 
95.498   1.95000000e+02 
95.462   1.95000000e+02 
95.426   2.06000000e+02 
95.390   2.31000000e+02 
95.354   2.44000000e+02 
95.318   2.33000000e+02 
95.282   2.71000000e+02 
95.246   2.54000000e+02 
95.210   2.66000000e+02 
95.174   2.50000000e+02 
95.138   3.04000000e+02 
95.102   2.58000000e+02 
95.066   2.64000000e+02 
95.030   2.55000000e+02 
94.995   2.21000000e+02 
94.959   2.47000000e+02 
94.923   2.61000000e+02 
94.887   2.32000000e+02 
94.851   2.10000000e+02 
94.815   2.25000000e+02 
94.779   2.02000000e+02 
94.743   1.73000000e+02 
94.707   1.50000000e+02 
94.671   1.44000000e+02 
94.635   1.56000000e+02 
94.599   1.30000000e+02 
94.563   1.28000000e+02 
94.527   1.21000000e+02 
94.491   9.60000000e+01 
94.455   9.40000000e+01 
94.420   9.10000000e+01 
94.384   8.20000000e+01 
94.348   8.20000000e+01 
94.312   7.10000000e+01 
94.276   7.40000000e+01 
94.240   7.10000000e+01 
94.204   6.00000000e+01 
94.168   7.60000000e+01 
94.132   8.20000000e+01 
94.096   6.80000000e+01 
94.060   6.30000000e+01 
94.024   4.90000000e+01 
93.988   6.00000000e+01 
93.952   6.50000000e+01 
93.916   6.30000000e+01 
93.880   4.60000000e+01 
93.845   5.20000000e+01 
93.809   5.60000000e+01 
93.773   4.10000000e+01 
93.737   5.20000000e+01 
93.701   6.40000000e+01 
93.665   4.70000000e+01 
93.629   5.80000000e+01 
93.593   5.40000000e+01 
93.557   5.50000000e+01 
93.521   6.30000000e+01 
93.485   6.90000000e+01 
93.449   6.40000000e+01 
93.413   4.50000000e+01 
93.377   3.90000000e+01 
93.341   5.30000000e+01 
93.305   4.50000000e+01 
93.270   6.00000000e+01 
93.234   5.90000000e+01 
93.198   6.50000000e+01 
93.162   5.70000000e+01 
93.126   6.20000000e+01 
93.090   5.20000000e+01 
93.054   5.80000000e+01 
93.018   5.30000000e+01 
92.982   6.90000000e+01 
92.946   6.20000000e+01 
92.910   6.40000000e+01 
92.874   5.10000000e+01 
92.838   7.10000000e+01 
92.802   5.80000000e+01 
92.766   7.30000000e+01 
92.730   6.00000000e+01 
92.695   8.70000000e+01 
92.659   7.90000000e+01 
92.623   7.90000000e+01 
92.587   9.10000000e+01 
92.551   8.80000000e+01 
92.515   9.10000000e+01 
92.479   8.90000000e+01 
92.443   1.08000000e+02 
92.407   9.40000000e+01 
92.371   9.90000000e+01 
92.335   9.60000000e+01 
92.299   1.20000000e+02 
92.263   1.21000000e+02 
92.227   1.30000000e+02 
92.191   1.25000000e+02 
92.155   1.65000000e+02 
92.120   1.44000000e+02 
92.084   1.46000000e+02 
92.048   1.57000000e+02 
92.012   1.80000000e+02 
91.976   1.92000000e+02 
91.940   1.77000000e+02 
91.904   1.84000000e+02 
91.868   2.06000000e+02 
91.832   2.42000000e+02 
91.796   2.45000000e+02 
91.760   2.67000000e+02 
91.724   2.71000000e+02 
91.688   2.65000000e+02 
91.652   2.87000000e+02 
91.616   2.92000000e+02 
91.580   3.01000000e+02 
91.545   3.12000000e+02 
91.509   3.03000000e+02 
91.473   3.33000000e+02 
91.437   3.02000000e+02 
91.401   2.99000000e+02 
91.365   3.31000000e+02 
91.329   3.27000000e+02 
91.293   3.09000000e+02 
91.257   2.68000000e+02 
91.221   2.76000000e+02 
91.185   2.73000000e+02 
91.149   2.30000000e+02 
91.113   2.53000000e+02 
91.077   2.02000000e+02 
91.041   2.05000000e+02 
91.005   1.90000000e+02 
90.970   1.49000000e+02 
90.934   1.52000000e+02 
90.898   1.32000000e+02 
90.862   1.16000000e+02 
90.826   1.03000000e+02 
90.790   1.12000000e+02 
90.754   9.40000000e+01 
90.718   8.60000000e+01 
90.682   7.20000000e+01 
90.646   5.40000000e+01 
90.610   5.50000000e+01 
90.574   5.00000000e+01 
90.538   6.60000000e+01 
90.502   6.00000000e+01 
90.466   5.20000000e+01 
90.430   4.90000000e+01 
90.395   4.40000000e+01 
90.359   4.50000000e+01 
90.323   4.50000000e+01 
90.287   4.50000000e+01 
90.251   3.10000000e+01 
90.215   4.20000000e+01 
90.179   3.70000000e+01 
90.143   3.70000000e+01 
90.107   4.50000000e+01 
90.071   4.30000000e+01 
90.035   4.50000000e+01 
89.999   4.30000000e+01 
89.963   5.10000000e+01 
89.927   3.50000000e+01 
89.891   3.50000000e+01 
89.855   2.70000000e+01 
89.820   2.70000000e+01 
89.784   3.20000000e+01 
89.748   2.40000000e+01 
89.712   3.80000000e+01 
89.676   3.00000000e+01 
89.640   3.00000000e+01 
89.604   2.40000000e+01 
89.568   2.90000000e+01 
89.532   2.20000000e+01 
89.496   2.70000000e+01 
89.460   3.90000000e+01 
89.424   3.30000000e+01 
89.388   2.00000000e+01 
89.352   3.50000000e+01 
89.316   3.40000000e+01 
89.280   3.80000000e+01 
89.245   3.90000000e+01 
89.209   3.60000000e+01 
89.173   2.50000000e+01 
89.137   1.80000000e+01 
89.101   1.90000000e+01 
89.065   2.70000000e+01 
89.029   3.50000000e+01 
88.993   1.70000000e+01 
88.957   2.80000000e+01 
88.921   2.60000000e+01 
88.885   3.90000000e+01 
88.849   2.30000000e+01 
88.813   2.10000000e+01 
88.777   2.80000000e+01 
88.741   2.70000000e+01 
88.705   2.70000000e+01 
88.670   2.20000000e+01 
88.634   3.50000000e+01 
88.598   2.80000000e+01 
88.562   2.40000000e+01 
88.526   2.00000000e+01 
88.490   3.60000000e+01 
88.454   2.90000000e+01 
88.418   4.20000000e+01 
88.382   2.10000000e+01 
88.346   3.10000000e+01 
88.310   1.40000000e+01 
88.274   2.40000000e+01 
88.238   2.10000000e+01 
88.202   2.40000000e+01 
88.166   2.80000000e+01 
88.130   3.40000000e+01 
88.095   3.40000000e+01 
88.059   3.10000000e+01 
88.023   2.90000000e+01 

