EXPERIMENT FILE
Version = 2

[ Experiment Parameters ]
Experiment Description= <none> 
Number_of_Regions_in_Experiment= 1 

Original_File_name= C:\alexesca\data\10182012_Au _4f_58nuetral-28.xps 
Instrument= HP ESCA West
Date= 10-18-2012
Time=  14:57:57

[ Layer Parameters ]
Layer_Type= XPS

[ Region 1 Parameters ]
Region_Description = Au 4f Dithered Scan                
BEcenter(eV) = 93.000000
BEwidth(eV) = 10.000000
BEstep(eV) = 0.035937
Dwell_Time(sec) = 1.000000
N_o_scans = 1  
N_o_Channels = 278  
Scan_mode = 0  (DITHERED)

[ L= 1 R= 1 ]
BEcenter= 93.000  
BEwidth= -9.955  
Excitation= 1486.600
Time_p_channel= 256.000 
Size= 278
97.977   1.01000000e+02 
97.941   9.70000000e+01 
97.905   9.90000000e+01 
97.870   1.16000000e+02 
97.834   1.01000000e+02 
97.798   1.14000000e+02 
97.762   9.90000000e+01 
97.726   1.06000000e+02 
97.690   1.11000000e+02 
97.654   1.10000000e+02 
97.618   1.13000000e+02 
97.582   1.36000000e+02 
97.546   1.09000000e+02 
97.510   1.10000000e+02 
97.474   1.13000000e+02 
97.438   1.29000000e+02 
97.402   1.11000000e+02 
97.366   1.19000000e+02 
97.330   1.19000000e+02 
97.295   1.13000000e+02 
97.259   9.80000000e+01 
97.223   1.08000000e+02 
97.187   1.18000000e+02 
97.151   1.09000000e+02 
97.115   1.07000000e+02 
97.079   9.80000000e+01 
97.043   1.11000000e+02 
97.007   1.21000000e+02 
96.971   1.08000000e+02 
96.935   1.06000000e+02 
96.899   1.23000000e+02 
96.863   1.08000000e+02 
96.827   1.10000000e+02 
96.791   1.17000000e+02 
96.755   1.14000000e+02 
96.720   1.22000000e+02 
96.684   1.26000000e+02 
96.648   1.34000000e+02 
96.612   1.37000000e+02 
96.576   1.17000000e+02 
96.540   1.34000000e+02 
96.504   1.21000000e+02 
96.468   1.53000000e+02 
96.432   1.51000000e+02 
96.396   1.38000000e+02 
96.360   1.38000000e+02 
96.324   1.20000000e+02 
96.288   1.32000000e+02 
96.252   1.67000000e+02 
96.216   1.52000000e+02 
96.180   1.37000000e+02 
96.145   1.38000000e+02 
96.109   1.61000000e+02 
96.073   1.56000000e+02 
96.037   1.71000000e+02 
96.001   1.81000000e+02 
95.965   1.90000000e+02 
95.929   2.20000000e+02 
95.893   1.99000000e+02 
95.857   2.30000000e+02 
95.821   2.23000000e+02 
95.785   2.39000000e+02 
95.749   2.44000000e+02 
95.713   2.41000000e+02 
95.677   2.61000000e+02 
95.641   2.97000000e+02 
95.605   2.76000000e+02 
95.570   3.04000000e+02 
95.534   3.27000000e+02 
95.498   3.39000000e+02 
95.462   3.48000000e+02 
95.426   4.13000000e+02 
95.390   3.70000000e+02 
95.354   3.92000000e+02 
95.318   4.40000000e+02 
95.282   4.41000000e+02 
95.246   4.77000000e+02 
95.210   4.52000000e+02 
95.174   4.79000000e+02 
95.138   5.29000000e+02 
95.102   5.57000000e+02 
95.066   5.45000000e+02 
95.030   5.68000000e+02 
94.995   5.44000000e+02 
94.959   6.00000000e+02 
94.923   6.18000000e+02 
94.887   6.28000000e+02 
94.851   5.96000000e+02 
94.815   5.97000000e+02 
94.779   6.03000000e+02 
94.743   5.38000000e+02 
94.707   5.07000000e+02 
94.671   4.98000000e+02 
94.635   4.60000000e+02 
94.599   4.22000000e+02 
94.563   4.04000000e+02 
94.527   3.42000000e+02 
94.491   3.51000000e+02 
94.455   2.85000000e+02 
94.420   2.61000000e+02 
94.384   2.28000000e+02 
94.348   2.26000000e+02 
94.312   2.04000000e+02 
94.276   1.79000000e+02 
94.240   1.67000000e+02 
94.204   1.56000000e+02 
94.168   1.72000000e+02 
94.132   1.54000000e+02 
94.096   1.37000000e+02 
94.060   1.28000000e+02 
94.024   1.43000000e+02 
93.988   1.23000000e+02 
93.952   1.28000000e+02 
93.916   1.40000000e+02 
93.880   1.27000000e+02 
93.845   1.09000000e+02 
93.809   1.40000000e+02 
93.773   1.08000000e+02 
93.737   1.27000000e+02 
93.701   1.30000000e+02 
93.665   1.15000000e+02 
93.629   1.14000000e+02 
93.593   1.25000000e+02 
93.557   9.20000000e+01 
93.521   1.14000000e+02 
93.485   1.07000000e+02 
93.449   1.05000000e+02 
93.413   1.00000000e+02 
93.377   9.40000000e+01 
93.341   1.03000000e+02 
93.305   1.14000000e+02 
93.270   1.14000000e+02 
93.234   1.10000000e+02 
93.198   1.11000000e+02 
93.162   9.50000000e+01 
93.126   1.00000000e+02 
93.090   1.04000000e+02 
93.054   1.20000000e+02 
93.018   9.90000000e+01 
92.982   1.20000000e+02 
92.946   1.29000000e+02 
92.910   1.13000000e+02 
92.874   1.15000000e+02 
92.838   1.35000000e+02 
92.802   1.21000000e+02 
92.766   1.13000000e+02 
92.730   1.04000000e+02 
92.695   1.28000000e+02 
92.659   1.27000000e+02 
92.623   1.30000000e+02 
92.587   1.52000000e+02 
92.551   1.61000000e+02 
92.515   1.68000000e+02 
92.479   1.64000000e+02 
92.443   1.33000000e+02 
92.407   1.85000000e+02 
92.371   1.80000000e+02 
92.335   1.82000000e+02 
92.299   2.02000000e+02 
92.263   1.80000000e+02 
92.227   2.18000000e+02 
92.191   2.30000000e+02 
92.155   2.45000000e+02 
92.120   2.32000000e+02 
92.084   2.56000000e+02 
92.048   3.02000000e+02 
92.012   2.96000000e+02 
91.976   3.03000000e+02 
91.940   3.35000000e+02 
91.904   3.36000000e+02 
91.868   3.44000000e+02 
91.832   3.68000000e+02 
91.796   3.77000000e+02 
91.760   3.73000000e+02 
91.724   4.18000000e+02 
91.688   4.81000000e+02 
91.652   4.70000000e+02 
91.616   4.92000000e+02 
91.580   5.80000000e+02 
91.545   5.36000000e+02 
91.509   6.02000000e+02 
91.473   6.24000000e+02 
91.437   6.47000000e+02 
91.401   6.76000000e+02 
91.365   6.87000000e+02 
91.329   6.78000000e+02 
91.293   7.59000000e+02 
91.257   7.18000000e+02 
91.221   6.76000000e+02 
91.185   7.08000000e+02 
91.149   7.25000000e+02 
91.113   6.94000000e+02 
91.077   6.92000000e+02 
91.041   6.53000000e+02 
91.005   5.87000000e+02 
90.970   5.35000000e+02 
90.934   5.16000000e+02 
90.898   4.76000000e+02 
90.862   3.93000000e+02 
90.826   3.44000000e+02 
90.790   3.17000000e+02 
90.754   2.81000000e+02 
90.718   3.06000000e+02 
90.682   2.11000000e+02 
90.646   2.26000000e+02 
90.610   1.75000000e+02 
90.574   1.66000000e+02 
90.538   1.73000000e+02 
90.502   1.57000000e+02 
90.466   1.22000000e+02 
90.430   1.18000000e+02 
90.395   1.23000000e+02 
90.359   1.05000000e+02 
90.323   1.12000000e+02 
90.287   9.70000000e+01 
90.251   8.40000000e+01 
90.215   8.90000000e+01 
90.179   9.00000000e+01 
90.143   1.03000000e+02 
90.107   7.60000000e+01 
90.071   6.70000000e+01 
90.035   6.80000000e+01 
89.999   7.40000000e+01 
89.963   6.60000000e+01 
89.927   7.40000000e+01 
89.891   7.60000000e+01 
89.855   6.80000000e+01 
89.820   6.20000000e+01 
89.784   7.10000000e+01 
89.748   6.80000000e+01 
89.712   7.00000000e+01 
89.676   6.60000000e+01 
89.640   8.10000000e+01 
89.604   7.20000000e+01 
89.568   6.20000000e+01 
89.532   6.10000000e+01 
89.496   4.90000000e+01 
89.460   6.00000000e+01 
89.424   7.10000000e+01 
89.388   5.30000000e+01 
89.352   6.30000000e+01 
89.316   6.50000000e+01 
89.280   6.60000000e+01 
89.245   5.20000000e+01 
89.209   6.40000000e+01 
89.173   5.10000000e+01 
89.137   5.30000000e+01 
89.101   5.00000000e+01 
89.065   6.20000000e+01 
89.029   5.90000000e+01 
88.993   5.80000000e+01 
88.957   5.90000000e+01 
88.921   6.70000000e+01 
88.885   5.90000000e+01 
88.849   5.40000000e+01 
88.813   5.60000000e+01 
88.777   4.60000000e+01 
88.741   5.40000000e+01 
88.705   6.00000000e+01 
88.670   5.40000000e+01 
88.634   4.40000000e+01 
88.598   6.10000000e+01 
88.562   5.70000000e+01 
88.526   4.40000000e+01 
88.490   4.70000000e+01 
88.454   5.00000000e+01 
88.418   5.30000000e+01 
88.382   4.50000000e+01 
88.346   4.10000000e+01 
88.310   4.40000000e+01 
88.274   4.70000000e+01 
88.238   4.50000000e+01 
88.202   6.00000000e+01 
88.166   5.20000000e+01 
88.130   4.80000000e+01 
88.095   4.20000000e+01 
88.059   5.40000000e+01 
88.023   5.30000000e+01 

