EXPERIMENT FILE
Version = 2

[ Experiment Parameters ]
Experiment Description= <none> 
Number_of_Regions_in_Experiment= 1 

Original_File_name= C:\alexesca\data\10182012_Au _4f_58nuetral-38.xps 
Instrument= HP ESCA West
Date= 10-18-2012
Time=  14:46:57

[ Layer Parameters ]
Layer_Type= XPS

[ Region 1 Parameters ]
Region_Description = Au 4f Dithered Scan                
BEcenter(eV) = 93.000000
BEwidth(eV) = 10.000000
BEstep(eV) = 0.035937
Dwell_Time(sec) = 1.000000
N_o_scans = 1  
N_o_Channels = 278  
Scan_mode = 0  (DITHERED)

[ L= 1 R= 1 ]
BEcenter= 93.000  
BEwidth= -9.955  
Excitation= 1486.600
Time_p_channel= 256.000 
Size= 278
97.977   5.00000000e+01 
97.941   4.80000000e+01 
97.905   6.70000000e+01 
97.870   5.90000000e+01 
97.834   6.40000000e+01 
97.798   6.30000000e+01 
97.762   5.20000000e+01 
97.726   5.70000000e+01 
97.690   5.10000000e+01 
97.654   5.20000000e+01 
97.618   5.40000000e+01 
97.582   6.70000000e+01 
97.546   5.10000000e+01 
97.510   4.90000000e+01 
97.474   6.10000000e+01 
97.438   5.70000000e+01 
97.402   4.50000000e+01 
97.366   6.30000000e+01 
97.330   4.50000000e+01 
97.295   4.50000000e+01 
97.259   5.00000000e+01 
97.223   5.70000000e+01 
97.187   6.10000000e+01 
97.151   6.70000000e+01 
97.115   6.20000000e+01 
97.079   4.10000000e+01 
97.043   5.20000000e+01 
97.007   5.80000000e+01 
96.971   6.40000000e+01 
96.935   6.30000000e+01 
96.899   6.10000000e+01 
96.863   5.40000000e+01 
96.827   5.40000000e+01 
96.791   6.00000000e+01 
96.755   5.30000000e+01 
96.720   5.30000000e+01 
96.684   6.30000000e+01 
96.648   6.30000000e+01 
96.612   5.40000000e+01 
96.576   5.70000000e+01 
96.540   5.90000000e+01 
96.504   6.50000000e+01 
96.468   6.30000000e+01 
96.432   7.50000000e+01 
96.396   8.40000000e+01 
96.360   7.10000000e+01 
96.324   6.70000000e+01 
96.288   6.70000000e+01 
96.252   7.30000000e+01 
96.216   6.40000000e+01 
96.180   7.60000000e+01 
96.145   6.20000000e+01 
96.109   7.50000000e+01 
96.073   8.60000000e+01 
96.037   7.30000000e+01 
96.001   9.30000000e+01 
95.965   1.02000000e+02 
95.929   9.80000000e+01 
95.893   9.10000000e+01 
95.857   1.18000000e+02 
95.821   1.29000000e+02 
95.785   1.18000000e+02 
95.749   1.33000000e+02 
95.713   1.51000000e+02 
95.677   1.48000000e+02 
95.641   1.48000000e+02 
95.605   1.42000000e+02 
95.570   1.50000000e+02 
95.534   1.61000000e+02 
95.498   1.65000000e+02 
95.462   1.67000000e+02 
95.426   2.03000000e+02 
95.390   2.09000000e+02 
95.354   2.05000000e+02 
95.318   2.13000000e+02 
95.282   2.30000000e+02 
95.246   2.35000000e+02 
95.210   2.39000000e+02 
95.174   2.82000000e+02 
95.138   2.66000000e+02 
95.102   2.70000000e+02 
95.066   2.70000000e+02 
95.030   2.56000000e+02 
94.995   2.80000000e+02 
94.959   2.78000000e+02 
94.923   2.84000000e+02 
94.887   2.79000000e+02 
94.851   2.47000000e+02 
94.815   2.88000000e+02 
94.779   2.75000000e+02 
94.743   2.36000000e+02 
94.707   2.16000000e+02 
94.671   1.99000000e+02 
94.635   2.16000000e+02 
94.599   1.82000000e+02 
94.563   1.42000000e+02 
94.527   1.62000000e+02 
94.491   1.54000000e+02 
94.455   1.34000000e+02 
94.420   1.12000000e+02 
94.384   1.02000000e+02 
94.348   9.40000000e+01 
94.312   1.02000000e+02 
94.276   8.50000000e+01 
94.240   8.80000000e+01 
94.204   6.90000000e+01 
94.168   7.40000000e+01 
94.132   6.20000000e+01 
94.096   9.00000000e+01 
94.060   5.20000000e+01 
94.024   6.40000000e+01 
93.988   6.10000000e+01 
93.952   5.20000000e+01 
93.916   6.40000000e+01 
93.880   6.60000000e+01 
93.845   4.80000000e+01 
93.809   4.80000000e+01 
93.773   5.00000000e+01 
93.737   6.30000000e+01 
93.701   6.70000000e+01 
93.665   5.50000000e+01 
93.629   5.70000000e+01 
93.593   6.60000000e+01 
93.557   6.90000000e+01 
93.521   6.30000000e+01 
93.485   6.10000000e+01 
93.449   4.20000000e+01 
93.413   5.90000000e+01 
93.377   5.60000000e+01 
93.341   4.20000000e+01 
93.305   4.90000000e+01 
93.270   4.30000000e+01 
93.234   6.40000000e+01 
93.198   6.60000000e+01 
93.162   5.30000000e+01 
93.126   6.20000000e+01 
93.090   6.20000000e+01 
93.054   7.00000000e+01 
93.018   4.40000000e+01 
92.982   4.80000000e+01 
92.946   7.50000000e+01 
92.910   6.40000000e+01 
92.874   5.00000000e+01 
92.838   6.60000000e+01 
92.802   5.30000000e+01 
92.766   5.60000000e+01 
92.730   6.40000000e+01 
92.695   6.40000000e+01 
92.659   6.10000000e+01 
92.623   7.20000000e+01 
92.587   6.00000000e+01 
92.551   6.20000000e+01 
92.515   7.30000000e+01 
92.479   7.60000000e+01 
92.443   7.60000000e+01 
92.407   9.60000000e+01 
92.371   8.60000000e+01 
92.335   9.60000000e+01 
92.299   9.60000000e+01 
92.263   9.40000000e+01 
92.227   7.60000000e+01 
92.191   1.16000000e+02 
92.155   1.30000000e+02 
92.120   1.24000000e+02 
92.084   1.29000000e+02 
92.048   1.44000000e+02 
92.012   1.60000000e+02 
91.976   1.55000000e+02 
91.940   1.62000000e+02 
91.904   1.57000000e+02 
91.868   1.98000000e+02 
91.832   1.96000000e+02 
91.796   2.08000000e+02 
91.760   2.14000000e+02 
91.724   2.58000000e+02 
91.688   2.70000000e+02 
91.652   2.63000000e+02 
91.616   2.64000000e+02 
91.580   2.94000000e+02 
91.545   2.87000000e+02 
91.509   3.11000000e+02 
91.473   3.26000000e+02 
91.437   3.33000000e+02 
91.401   3.51000000e+02 
91.365   3.20000000e+02 
91.329   3.32000000e+02 
91.293   3.93000000e+02 
91.257   3.28000000e+02 
91.221   3.22000000e+02 
91.185   3.18000000e+02 
91.149   3.20000000e+02 
91.113   2.77000000e+02 
91.077   2.94000000e+02 
91.041   2.67000000e+02 
91.005   2.31000000e+02 
90.970   2.14000000e+02 
90.934   2.04000000e+02 
90.898   1.87000000e+02 
90.862   1.43000000e+02 
90.826   1.54000000e+02 
90.790   1.28000000e+02 
90.754   1.30000000e+02 
90.718   9.70000000e+01 
90.682   9.00000000e+01 
90.646   1.02000000e+02 
90.610   8.00000000e+01 
90.574   7.60000000e+01 
90.538   6.40000000e+01 
90.502   7.30000000e+01 
90.466   6.70000000e+01 
90.430   6.00000000e+01 
90.395   5.50000000e+01 
90.359   5.70000000e+01 
90.323   4.60000000e+01 
90.287   4.80000000e+01 
90.251   4.50000000e+01 
90.215   4.70000000e+01 
90.179   3.40000000e+01 
90.143   5.70000000e+01 
90.107   3.50000000e+01 
90.071   4.50000000e+01 
90.035   3.20000000e+01 
89.999   3.80000000e+01 
89.963   4.10000000e+01 
89.927   3.50000000e+01 
89.891   2.70000000e+01 
89.855   4.20000000e+01 
89.820   3.20000000e+01 
89.784   3.50000000e+01 
89.748   3.10000000e+01 
89.712   3.60000000e+01 
89.676   3.00000000e+01 
89.640   3.30000000e+01 
89.604   4.20000000e+01 
89.568   3.20000000e+01 
89.532   3.90000000e+01 
89.496   3.30000000e+01 
89.460   2.80000000e+01 
89.424   3.80000000e+01 
89.388   2.00000000e+01 
89.352   3.60000000e+01 
89.316   3.10000000e+01 
89.280   3.00000000e+01 
89.245   3.00000000e+01 
89.209   3.20000000e+01 
89.173   4.10000000e+01 
89.137   3.50000000e+01 
89.101   1.70000000e+01 
89.065   3.00000000e+01 
89.029   2.90000000e+01 
88.993   2.00000000e+01 
88.957   2.90000000e+01 
88.921   3.70000000e+01 
88.885   1.90000000e+01 
88.849   3.00000000e+01 
88.813   2.70000000e+01 
88.777   3.20000000e+01 
88.741   2.90000000e+01 
88.705   2.50000000e+01 
88.670   2.70000000e+01 
88.634   2.40000000e+01 
88.598   1.50000000e+01 
88.562   2.60000000e+01 
88.526   2.40000000e+01 
88.490   2.30000000e+01 
88.454   2.40000000e+01 
88.418   2.30000000e+01 
88.382   3.10000000e+01 
88.346   2.70000000e+01 
88.310   1.70000000e+01 
88.274   2.40000000e+01 
88.238   3.30000000e+01 
88.202   2.50000000e+01 
88.166   3.30000000e+01 
88.130   2.40000000e+01 
88.095   3.00000000e+01 
88.059   3.40000000e+01 
88.023   2.80000000e+01 

