EXPERIMENT FILE
Version = 2

[ Experiment Parameters ]
Experiment Description= <none> 
Number_of_Regions_in_Experiment= 1 

Original_File_name= C:\alexesca\data\10192012_Au _4f_59nuetral-39_Mono205.xps 
Instrument= HP ESCA West
Date= 10-19-2012
Time=  14:33:35

[ Layer Parameters ]
Layer_Type= XPS

[ Region 1 Parameters ]
Region_Description = Au 4f Dithered Scan                
BEcenter(eV) = 93.000000
BEwidth(eV) = 10.000000
BEstep(eV) = 0.035937
Dwell_Time(sec) = 1.000000
N_o_scans = 1  
N_o_Channels = 278  
Scan_mode = 0  (DITHERED)

[ L= 1 R= 1 ]
BEcenter= 93.000  
BEwidth= -9.955  
Excitation= 1486.600
Time_p_channel= 256.000 
Size= 278
97.977   3.70000000e+01 
97.941   6.50000000e+01 
97.905   5.60000000e+01 
97.870   4.50000000e+01 
97.834   6.20000000e+01 
97.798   5.20000000e+01 
97.762   6.30000000e+01 
97.726   6.20000000e+01 
97.690   5.10000000e+01 
97.654   5.10000000e+01 
97.618   6.50000000e+01 
97.582   5.30000000e+01 
97.546   4.00000000e+01 
97.510   6.40000000e+01 
97.474   5.30000000e+01 
97.438   5.50000000e+01 
97.402   5.40000000e+01 
97.366   5.20000000e+01 
97.330   5.20000000e+01 
97.295   6.20000000e+01 
97.259   6.20000000e+01 
97.223   5.90000000e+01 
97.187   5.60000000e+01 
97.151   5.70000000e+01 
97.115   5.50000000e+01 
97.079   5.60000000e+01 
97.043   5.40000000e+01 
97.007   5.90000000e+01 
96.971   5.90000000e+01 
96.935   4.60000000e+01 
96.899   7.20000000e+01 
96.863   6.00000000e+01 
96.827   5.20000000e+01 
96.791   6.00000000e+01 
96.755   5.50000000e+01 
96.720   5.50000000e+01 
96.684   6.00000000e+01 
96.648   5.50000000e+01 
96.612   5.60000000e+01 
96.576   6.70000000e+01 
96.540   6.50000000e+01 
96.504   6.70000000e+01 
96.468   7.90000000e+01 
96.432   6.80000000e+01 
96.396   7.10000000e+01 
96.360   7.70000000e+01 
96.324   7.10000000e+01 
96.288   9.60000000e+01 
96.252   9.40000000e+01 
96.216   8.20000000e+01 
96.180   8.40000000e+01 
96.145   6.30000000e+01 
96.109   7.60000000e+01 
96.073   8.00000000e+01 
96.037   1.04000000e+02 
96.001   9.20000000e+01 
95.965   1.27000000e+02 
95.929   1.27000000e+02 
95.893   1.29000000e+02 
95.857   1.16000000e+02 
95.821   1.36000000e+02 
95.785   1.43000000e+02 
95.749   1.45000000e+02 
95.713   1.57000000e+02 
95.677   1.67000000e+02 
95.641   1.69000000e+02 
95.605   1.87000000e+02 
95.570   1.66000000e+02 
95.534   2.07000000e+02 
95.498   1.93000000e+02 
95.462   1.90000000e+02 
95.426   2.23000000e+02 
95.390   2.40000000e+02 
95.354   2.38000000e+02 
95.318   2.74000000e+02 
95.282   2.59000000e+02 
95.246   2.64000000e+02 
95.210   3.01000000e+02 
95.174   2.85000000e+02 
95.138   2.87000000e+02 
95.102   3.13000000e+02 
95.066   3.11000000e+02 
95.030   2.74000000e+02 
94.995   2.81000000e+02 
94.959   2.61000000e+02 
94.923   2.89000000e+02 
94.887   2.51000000e+02 
94.851   2.25000000e+02 
94.815   2.35000000e+02 
94.779   2.03000000e+02 
94.743   1.94000000e+02 
94.707   1.96000000e+02 
94.671   1.80000000e+02 
94.635   1.53000000e+02 
94.599   1.30000000e+02 
94.563   1.20000000e+02 
94.527   1.01000000e+02 
94.491   1.28000000e+02 
94.455   1.00000000e+02 
94.420   1.02000000e+02 
94.384   9.10000000e+01 
94.348   8.10000000e+01 
94.312   9.40000000e+01 
94.276   9.10000000e+01 
94.240   7.80000000e+01 
94.204   8.10000000e+01 
94.168   6.60000000e+01 
94.132   7.70000000e+01 
94.096   6.50000000e+01 
94.060   6.80000000e+01 
94.024   7.40000000e+01 
93.988   6.50000000e+01 
93.952   6.40000000e+01 
93.916   6.40000000e+01 
93.880   6.60000000e+01 
93.845   6.30000000e+01 
93.809   6.20000000e+01 
93.773   5.30000000e+01 
93.737   5.60000000e+01 
93.701   5.40000000e+01 
93.665   4.90000000e+01 
93.629   6.20000000e+01 
93.593   5.30000000e+01 
93.557   6.50000000e+01 
93.521   6.00000000e+01 
93.485   6.00000000e+01 
93.449   4.60000000e+01 
93.413   4.90000000e+01 
93.377   6.50000000e+01 
93.341   7.00000000e+01 
93.305   6.30000000e+01 
93.270   5.50000000e+01 
93.234   5.70000000e+01 
93.198   5.00000000e+01 
93.162   4.90000000e+01 
93.126   6.10000000e+01 
93.090   6.00000000e+01 
93.054   5.30000000e+01 
93.018   5.50000000e+01 
92.982   6.60000000e+01 
92.946   5.60000000e+01 
92.910   6.90000000e+01 
92.874   6.20000000e+01 
92.838   7.30000000e+01 
92.802   6.40000000e+01 
92.766   6.20000000e+01 
92.730   7.20000000e+01 
92.695   7.00000000e+01 
92.659   6.80000000e+01 
92.623   8.50000000e+01 
92.587   7.90000000e+01 
92.551   1.07000000e+02 
92.515   8.30000000e+01 
92.479   8.50000000e+01 
92.443   8.70000000e+01 
92.407   9.40000000e+01 
92.371   1.03000000e+02 
92.335   9.30000000e+01 
92.299   1.37000000e+02 
92.263   1.23000000e+02 
92.227   1.37000000e+02 
92.191   1.11000000e+02 
92.155   1.21000000e+02 
92.120   1.58000000e+02 
92.084   1.46000000e+02 
92.048   1.61000000e+02 
92.012   1.94000000e+02 
91.976   1.79000000e+02 
91.940   1.97000000e+02 
91.904   2.30000000e+02 
91.868   2.19000000e+02 
91.832   2.51000000e+02 
91.796   2.59000000e+02 
91.760   2.87000000e+02 
91.724   2.74000000e+02 
91.688   2.88000000e+02 
91.652   3.10000000e+02 
91.616   3.08000000e+02 
91.580   3.29000000e+02 
91.545   3.56000000e+02 
91.509   3.10000000e+02 
91.473   3.69000000e+02 
91.437   3.46000000e+02 
91.401   3.50000000e+02 
91.365   3.71000000e+02 
91.329   3.25000000e+02 
91.293   3.21000000e+02 
91.257   2.93000000e+02 
91.221   3.05000000e+02 
91.185   3.19000000e+02 
91.149   2.65000000e+02 
91.113   2.48000000e+02 
91.077   2.24000000e+02 
91.041   2.25000000e+02 
91.005   1.80000000e+02 
90.970   1.70000000e+02 
90.934   1.65000000e+02 
90.898   1.33000000e+02 
90.862   1.10000000e+02 
90.826   1.26000000e+02 
90.790   1.04000000e+02 
90.754   9.60000000e+01 
90.718   9.00000000e+01 
90.682   7.30000000e+01 
90.646   7.10000000e+01 
90.610   7.40000000e+01 
90.574   7.10000000e+01 
90.538   5.20000000e+01 
90.502   4.40000000e+01 
90.466   5.80000000e+01 
90.430   4.40000000e+01 
90.395   4.90000000e+01 
90.359   4.60000000e+01 
90.323   5.20000000e+01 
90.287   3.60000000e+01 
90.251   5.10000000e+01 
90.215   4.60000000e+01 
90.179   3.80000000e+01 
90.143   4.30000000e+01 
90.107   3.60000000e+01 
90.071   3.10000000e+01 
90.035   3.00000000e+01 
89.999   3.80000000e+01 
89.963   2.90000000e+01 
89.927   3.20000000e+01 
89.891   3.10000000e+01 
89.855   3.40000000e+01 
89.820   2.80000000e+01 
89.784   3.10000000e+01 
89.748   3.20000000e+01 
89.712   3.20000000e+01 
89.676   2.90000000e+01 
89.640   4.30000000e+01 
89.604   2.60000000e+01 
89.568   4.10000000e+01 
89.532   3.60000000e+01 
89.496   4.20000000e+01 
89.460   3.60000000e+01 
89.424   3.30000000e+01 
89.388   4.00000000e+01 
89.352   2.80000000e+01 
89.316   3.80000000e+01 
89.280   2.90000000e+01 
89.245   2.10000000e+01 
89.209   2.90000000e+01 
89.173   3.40000000e+01 
89.137   3.00000000e+01 
89.101   3.10000000e+01 
89.065   3.70000000e+01 
89.029   2.60000000e+01 
88.993   3.00000000e+01 
88.957   3.40000000e+01 
88.921   3.20000000e+01 
88.885   2.00000000e+01 
88.849   2.60000000e+01 
88.813   2.30000000e+01 
88.777   3.60000000e+01 
88.741   3.10000000e+01 
88.705   2.80000000e+01 
88.670   2.90000000e+01 
88.634   3.30000000e+01 
88.598   4.00000000e+01 
88.562   1.90000000e+01 
88.526   3.70000000e+01 
88.490   2.50000000e+01 
88.454   3.40000000e+01 
88.418   3.00000000e+01 
88.382   1.80000000e+01 
88.346   3.50000000e+01 
88.310   3.50000000e+01 
88.274   3.30000000e+01 
88.238   2.10000000e+01 
88.202   2.90000000e+01 
88.166   2.50000000e+01 
88.130   2.10000000e+01 
88.095   2.50000000e+01 
88.059   2.90000000e+01 
88.023   3.10000000e+01 

