EXPERIMENT FILE
Version = 2

[ Experiment Parameters ]
Experiment Description= <none> 
Number_of_Regions_in_Experiment= 1 

Original_File_name= C:\alexesca\data\10192012_Au _4f_59nuetral-29_Mono220.xps 
Instrument= HP ESCA West
Date= 10-19-2012
Time=  12:10:34

[ Layer Parameters ]
Layer_Type= XPS

[ Region 1 Parameters ]
Region_Description = Au 4f Dithered Scan                
BEcenter(eV) = 93.000000
BEwidth(eV) = 10.000000
BEstep(eV) = 0.035937
Dwell_Time(sec) = 1.000000
N_o_scans = 1  
N_o_Channels = 278  
Scan_mode = 0  (DITHERED)

[ L= 1 R= 1 ]
BEcenter= 93.000  
BEwidth= -9.955  
Excitation= 1486.600
Time_p_channel= 256.000 
Size= 278
97.977   1.15000000e+02 
97.941   1.06000000e+02 
97.905   1.35000000e+02 
97.870   1.03000000e+02 
97.834   1.13000000e+02 
97.798   1.26000000e+02 
97.762   1.41000000e+02 
97.726   1.28000000e+02 
97.690   1.36000000e+02 
97.654   1.05000000e+02 
97.618   1.18000000e+02 
97.582   1.16000000e+02 
97.546   1.29000000e+02 
97.510   1.04000000e+02 
97.474   1.15000000e+02 
97.438   9.10000000e+01 
97.402   1.10000000e+02 
97.366   1.24000000e+02 
97.330   1.24000000e+02 
97.295   1.24000000e+02 
97.259   1.21000000e+02 
97.223   1.33000000e+02 
97.187   9.70000000e+01 
97.151   1.23000000e+02 
97.115   1.11000000e+02 
97.079   1.14000000e+02 
97.043   1.08000000e+02 
97.007   1.18000000e+02 
96.971   1.23000000e+02 
96.935   1.36000000e+02 
96.899   1.29000000e+02 
96.863   1.50000000e+02 
96.827   1.28000000e+02 
96.791   1.39000000e+02 
96.755   1.50000000e+02 
96.720   1.36000000e+02 
96.684   1.16000000e+02 
96.648   1.45000000e+02 
96.612   1.57000000e+02 
96.576   1.37000000e+02 
96.540   1.70000000e+02 
96.504   1.26000000e+02 
96.468   1.51000000e+02 
96.432   1.77000000e+02 
96.396   1.75000000e+02 
96.360   1.84000000e+02 
96.324   1.66000000e+02 
96.288   1.72000000e+02 
96.252   1.90000000e+02 
96.216   1.99000000e+02 
96.180   1.95000000e+02 
96.145   1.96000000e+02 
96.109   2.18000000e+02 
96.073   2.12000000e+02 
96.037   1.99000000e+02 
96.001   2.55000000e+02 
95.965   2.19000000e+02 
95.929   2.83000000e+02 
95.893   3.05000000e+02 
95.857   2.97000000e+02 
95.821   3.01000000e+02 
95.785   2.97000000e+02 
95.749   3.58000000e+02 
95.713   3.73000000e+02 
95.677   3.61000000e+02 
95.641   3.80000000e+02 
95.605   4.09000000e+02 
95.570   4.17000000e+02 
95.534   4.14000000e+02 
95.498   4.83000000e+02 
95.462   4.43000000e+02 
95.426   4.87000000e+02 
95.390   5.15000000e+02 
95.354   5.02000000e+02 
95.318   5.19000000e+02 
95.282   5.15000000e+02 
95.246   5.74000000e+02 
95.210   5.91000000e+02 
95.174   5.82000000e+02 
95.138   5.42000000e+02 
95.102   5.84000000e+02 
95.066   6.29000000e+02 
95.030   5.96000000e+02 
94.995   5.72000000e+02 
94.959   5.35000000e+02 
94.923   5.99000000e+02 
94.887   5.36000000e+02 
94.851   4.80000000e+02 
94.815   4.76000000e+02 
94.779   4.37000000e+02 
94.743   4.25000000e+02 
94.707   3.55000000e+02 
94.671   3.60000000e+02 
94.635   3.17000000e+02 
94.599   2.71000000e+02 
94.563   2.38000000e+02 
94.527   2.49000000e+02 
94.491   2.22000000e+02 
94.455   2.05000000e+02 
94.420   2.09000000e+02 
94.384   2.13000000e+02 
94.348   1.80000000e+02 
94.312   1.75000000e+02 
94.276   1.58000000e+02 
94.240   1.35000000e+02 
94.204   1.39000000e+02 
94.168   1.41000000e+02 
94.132   1.38000000e+02 
94.096   1.55000000e+02 
94.060   1.43000000e+02 
94.024   1.19000000e+02 
93.988   1.32000000e+02 
93.952   1.21000000e+02 
93.916   1.22000000e+02 
93.880   1.07000000e+02 
93.845   1.29000000e+02 
93.809   1.28000000e+02 
93.773   1.24000000e+02 
93.737   1.09000000e+02 
93.701   1.13000000e+02 
93.665   1.30000000e+02 
93.629   1.09000000e+02 
93.593   1.18000000e+02 
93.557   1.02000000e+02 
93.521   1.19000000e+02 
93.485   1.25000000e+02 
93.449   1.08000000e+02 
93.413   1.12000000e+02 
93.377   1.06000000e+02 
93.341   1.13000000e+02 
93.305   1.29000000e+02 
93.270   1.15000000e+02 
93.234   1.26000000e+02 
93.198   1.09000000e+02 
93.162   1.17000000e+02 
93.126   1.40000000e+02 
93.090   1.24000000e+02 
93.054   1.17000000e+02 
93.018   1.15000000e+02 
92.982   1.47000000e+02 
92.946   1.32000000e+02 
92.910   1.31000000e+02 
92.874   1.66000000e+02 
92.838   1.45000000e+02 
92.802   1.69000000e+02 
92.766   1.74000000e+02 
92.730   1.58000000e+02 
92.695   1.67000000e+02 
92.659   1.72000000e+02 
92.623   1.60000000e+02 
92.587   1.94000000e+02 
92.551   2.35000000e+02 
92.515   2.08000000e+02 
92.479   2.20000000e+02 
92.443   2.40000000e+02 
92.407   2.48000000e+02 
92.371   2.37000000e+02 
92.335   2.61000000e+02 
92.299   2.88000000e+02 
92.263   2.73000000e+02 
92.227   3.34000000e+02 
92.191   3.52000000e+02 
92.155   3.26000000e+02 
92.120   3.42000000e+02 
92.084   3.71000000e+02 
92.048   4.11000000e+02 
92.012   4.26000000e+02 
91.976   4.42000000e+02 
91.940   4.55000000e+02 
91.904   4.67000000e+02 
91.868   4.97000000e+02 
91.832   5.17000000e+02 
91.796   5.28000000e+02 
91.760   5.60000000e+02 
91.724   5.96000000e+02 
91.688   5.79000000e+02 
91.652   6.54000000e+02 
91.616   6.59000000e+02 
91.580   6.54000000e+02 
91.545   7.20000000e+02 
91.509   7.38000000e+02 
91.473   7.17000000e+02 
91.437   7.17000000e+02 
91.401   7.36000000e+02 
91.365   7.16000000e+02 
91.329   7.05000000e+02 
91.293   6.85000000e+02 
91.257   6.73000000e+02 
91.221   6.44000000e+02 
91.185   6.08000000e+02 
91.149   5.77000000e+02 
91.113   5.27000000e+02 
91.077   4.37000000e+02 
91.041   3.95000000e+02 
91.005   3.41000000e+02 
90.970   3.25000000e+02 
90.934   3.08000000e+02 
90.898   2.59000000e+02 
90.862   2.06000000e+02 
90.826   2.16000000e+02 
90.790   1.94000000e+02 
90.754   1.85000000e+02 
90.718   1.35000000e+02 
90.682   1.78000000e+02 
90.646   1.51000000e+02 
90.610   1.33000000e+02 
90.574   1.19000000e+02 
90.538   1.17000000e+02 
90.502   1.03000000e+02 
90.466   1.01000000e+02 
90.430   1.17000000e+02 
90.395   9.80000000e+01 
90.359   9.40000000e+01 
90.323   9.90000000e+01 
90.287   9.90000000e+01 
90.251   6.90000000e+01 
90.215   8.40000000e+01 
90.179   9.60000000e+01 
90.143   7.70000000e+01 
90.107   6.30000000e+01 
90.071   8.90000000e+01 
90.035   7.50000000e+01 
89.999   7.30000000e+01 
89.963   6.50000000e+01 
89.927   8.20000000e+01 
89.891   4.60000000e+01 
89.855   6.90000000e+01 
89.820   7.50000000e+01 
89.784   7.00000000e+01 
89.748   4.90000000e+01 
89.712   5.70000000e+01 
89.676   4.80000000e+01 
89.640   5.80000000e+01 
89.604   7.40000000e+01 
89.568   6.10000000e+01 
89.532   6.20000000e+01 
89.496   6.90000000e+01 
89.460   6.40000000e+01 
89.424   5.60000000e+01 
89.388   5.60000000e+01 
89.352   5.60000000e+01 
89.316   6.30000000e+01 
89.280   5.30000000e+01 
89.245   6.90000000e+01 
89.209   4.70000000e+01 
89.173   6.20000000e+01 
89.137   4.90000000e+01 
89.101   6.30000000e+01 
89.065   6.10000000e+01 
89.029   4.70000000e+01 
88.993   5.40000000e+01 
88.957   4.20000000e+01 
88.921   6.30000000e+01 
88.885   5.80000000e+01 
88.849   5.20000000e+01 
88.813   5.80000000e+01 
88.777   6.40000000e+01 
88.741   5.50000000e+01 
88.705   5.50000000e+01 
88.670   5.10000000e+01 
88.634   6.00000000e+01 
88.598   5.10000000e+01 
88.562   5.30000000e+01 
88.526   6.40000000e+01 
88.490   4.70000000e+01 
88.454   6.00000000e+01 
88.418   4.90000000e+01 
88.382   5.60000000e+01 
88.346   4.40000000e+01 
88.310   4.70000000e+01 
88.274   6.20000000e+01 
88.238   5.30000000e+01 
88.202   6.20000000e+01 
88.166   6.00000000e+01 
88.130   5.10000000e+01 
88.095   5.60000000e+01 
88.059   5.70000000e+01 
88.023   5.80000000e+01 

