EXPERIMENT FILE
Version = 2

[ Experiment Parameters ]
Experiment Description= <none> 
Number_of_Regions_in_Experiment= 1 

Original_File_name= C:\alexesca\data\10222012_Au _4f_59nuetral-9_Mono222.xps 
Instrument= HP ESCA West
Date= 10-22-2012
Time=  15:02:36

[ Layer Parameters ]
Layer_Type= XPS

[ Region 1 Parameters ]
Region_Description = Au 4f Dithered Scan                
BEcenter(eV) = 93.000000
BEwidth(eV) = 10.000000
BEstep(eV) = 0.035937
Dwell_Time(sec) = 1.000000
N_o_scans = 1  
N_o_Channels = 278  
Scan_mode = 0  (DITHERED)

[ L= 1 R= 1 ]
BEcenter= 93.000  
BEwidth= -9.955  
Excitation= 1486.600
Time_p_channel= 256.000 
Size= 278
97.977   2.50000000e+02 
97.941   2.82000000e+02 
97.905   2.40000000e+02 
97.870   2.55000000e+02 
97.834   2.47000000e+02 
97.798   2.59000000e+02 
97.762   2.62000000e+02 
97.726   2.38000000e+02 
97.690   2.53000000e+02 
97.654   2.63000000e+02 
97.618   2.89000000e+02 
97.582   2.80000000e+02 
97.546   2.58000000e+02 
97.510   2.85000000e+02 
97.474   3.17000000e+02 
97.438   2.75000000e+02 
97.402   2.60000000e+02 
97.366   2.99000000e+02 
97.330   2.70000000e+02 
97.295   3.23000000e+02 
97.259   2.97000000e+02 
97.223   3.02000000e+02 
97.187   2.92000000e+02 
97.151   3.05000000e+02 
97.115   3.07000000e+02 
97.079   3.05000000e+02 
97.043   3.13000000e+02 
97.007   3.30000000e+02 
96.971   3.15000000e+02 
96.935   3.12000000e+02 
96.899   3.52000000e+02 
96.863   3.51000000e+02 
96.827   3.65000000e+02 
96.791   3.63000000e+02 
96.755   3.74000000e+02 
96.720   3.68000000e+02 
96.684   4.07000000e+02 
96.648   4.29000000e+02 
96.612   4.36000000e+02 
96.576   4.86000000e+02 
96.540   4.31000000e+02 
96.504   5.04000000e+02 
96.468   5.02000000e+02 
96.432   5.12000000e+02 
96.396   5.45000000e+02 
96.360   5.71000000e+02 
96.324   5.70000000e+02 
96.288   6.08000000e+02 
96.252   6.26000000e+02 
96.216   6.05000000e+02 
96.180   6.40000000e+02 
96.145   6.23000000e+02 
96.109   6.89000000e+02 
96.073   7.31000000e+02 
96.037   7.22000000e+02 
96.001   7.92000000e+02 
95.965   8.09000000e+02 
95.929   8.49000000e+02 
95.893   8.85000000e+02 
95.857   9.03000000e+02 
95.821   9.45000000e+02 
95.785   9.91000000e+02 
95.749   1.05100000e+03 
95.713   1.04900000e+03 
95.677   1.09000000e+03 
95.641   1.11700000e+03 
95.605   1.12200000e+03 
95.570   1.15000000e+03 
95.534   1.23600000e+03 
95.498   1.20000000e+03 
95.462   1.24400000e+03 
95.426   1.26200000e+03 
95.390   1.26000000e+03 
95.354   1.32300000e+03 
95.318   1.31700000e+03 
95.282   1.36500000e+03 
95.246   1.31800000e+03 
95.210   1.43400000e+03 
95.174   1.35800000e+03 
95.138   1.32900000e+03 
95.102   1.25700000e+03 
95.066   1.28500000e+03 
95.030   1.21400000e+03 
94.995   1.15000000e+03 
94.959   1.11200000e+03 
94.923   1.03800000e+03 
94.887   1.02300000e+03 
94.851   9.98000000e+02 
94.815   9.38000000e+02 
94.779   8.17000000e+02 
94.743   7.32000000e+02 
94.707   6.74000000e+02 
94.671   5.91000000e+02 
94.635   6.00000000e+02 
94.599   5.34000000e+02 
94.563   4.89000000e+02 
94.527   4.79000000e+02 
94.491   4.21000000e+02 
94.455   4.37000000e+02 
94.420   3.88000000e+02 
94.384   3.84000000e+02 
94.348   3.59000000e+02 
94.312   3.44000000e+02 
94.276   3.44000000e+02 
94.240   3.43000000e+02 
94.204   3.10000000e+02 
94.168   3.08000000e+02 
94.132   3.26000000e+02 
94.096   3.17000000e+02 
94.060   2.89000000e+02 
94.024   2.94000000e+02 
93.988   3.11000000e+02 
93.952   2.85000000e+02 
93.916   2.92000000e+02 
93.880   2.79000000e+02 
93.845   2.70000000e+02 
93.809   3.06000000e+02 
93.773   2.73000000e+02 
93.737   2.68000000e+02 
93.701   2.70000000e+02 
93.665   2.87000000e+02 
93.629   2.70000000e+02 
93.593   3.27000000e+02 
93.557   2.75000000e+02 
93.521   3.23000000e+02 
93.485   2.76000000e+02 
93.449   3.10000000e+02 
93.413   3.11000000e+02 
93.377   3.38000000e+02 
93.341   2.88000000e+02 
93.305   3.41000000e+02 
93.270   3.43000000e+02 
93.234   3.36000000e+02 
93.198   3.80000000e+02 
93.162   3.44000000e+02 
93.126   3.94000000e+02 
93.090   3.70000000e+02 
93.054   3.98000000e+02 
93.018   4.26000000e+02 
92.982   4.60000000e+02 
92.946   4.66000000e+02 
92.910   4.56000000e+02 
92.874   4.96000000e+02 
92.838   5.18000000e+02 
92.802   5.35000000e+02 
92.766   5.20000000e+02 
92.730   5.84000000e+02 
92.695   6.09000000e+02 
92.659   6.01000000e+02 
92.623   6.29000000e+02 
92.587   6.71000000e+02 
92.551   7.08000000e+02 
92.515   6.99000000e+02 
92.479   7.62000000e+02 
92.443   8.14000000e+02 
92.407   7.96000000e+02 
92.371   9.14000000e+02 
92.335   8.62000000e+02 
92.299   9.55000000e+02 
92.263   9.89000000e+02 
92.227   1.03500000e+03 
92.191   1.03900000e+03 
92.155   1.08900000e+03 
92.120   1.15500000e+03 
92.084   1.14900000e+03 
92.048   1.18100000e+03 
92.012   1.27500000e+03 
91.976   1.31100000e+03 
91.940   1.33700000e+03 
91.904   1.38000000e+03 
91.868   1.44100000e+03 
91.832   1.46500000e+03 
91.796   1.40400000e+03 
91.760   1.54200000e+03 
91.724   1.62300000e+03 
91.688   1.63000000e+03 
91.652   1.63800000e+03 
91.616   1.65600000e+03 
91.580   1.58600000e+03 
91.545   1.61100000e+03 
91.509   1.60700000e+03 
91.473   1.55000000e+03 
91.437   1.48000000e+03 
91.401   1.55200000e+03 
91.365   1.51900000e+03 
91.329   1.37100000e+03 
91.293   1.32100000e+03 
91.257   1.19000000e+03 
91.221   1.16900000e+03 
91.185   1.09400000e+03 
91.149   9.19000000e+02 
91.113   8.76000000e+02 
91.077   7.93000000e+02 
91.041   7.48000000e+02 
91.005   6.66000000e+02 
90.970   6.07000000e+02 
90.934   5.33000000e+02 
90.898   5.00000000e+02 
90.862   4.47000000e+02 
90.826   3.95000000e+02 
90.790   3.60000000e+02 
90.754   3.53000000e+02 
90.718   3.29000000e+02 
90.682   2.93000000e+02 
90.646   2.67000000e+02 
90.610   2.57000000e+02 
90.574   2.74000000e+02 
90.538   2.27000000e+02 
90.502   2.33000000e+02 
90.466   2.07000000e+02 
90.430   2.14000000e+02 
90.395   1.75000000e+02 
90.359   2.04000000e+02 
90.323   1.83000000e+02 
90.287   1.67000000e+02 
90.251   1.96000000e+02 
90.215   1.57000000e+02 
90.179   1.63000000e+02 
90.143   1.75000000e+02 
90.107   1.46000000e+02 
90.071   1.56000000e+02 
90.035   1.29000000e+02 
89.999   1.47000000e+02 
89.963   1.28000000e+02 
89.927   1.37000000e+02 
89.891   1.18000000e+02 
89.855   1.41000000e+02 
89.820   1.06000000e+02 
89.784   1.38000000e+02 
89.748   1.40000000e+02 
89.712   1.40000000e+02 
89.676   1.14000000e+02 
89.640   1.37000000e+02 
89.604   1.38000000e+02 
89.568   1.27000000e+02 
89.532   1.27000000e+02 
89.496   1.19000000e+02 
89.460   1.03000000e+02 
89.424   1.27000000e+02 
89.388   1.27000000e+02 
89.352   1.06000000e+02 
89.316   1.25000000e+02 
89.280   1.18000000e+02 
89.245   1.27000000e+02 
89.209   1.08000000e+02 
89.173   1.09000000e+02 
89.137   1.19000000e+02 
89.101   1.05000000e+02 
89.065   1.02000000e+02 
89.029   1.09000000e+02 
88.993   1.03000000e+02 
88.957   9.10000000e+01 
88.921   1.29000000e+02 
88.885   1.07000000e+02 
88.849   1.01000000e+02 
88.813   1.08000000e+02 
88.777   1.25000000e+02 
88.741   1.12000000e+02 
88.705   8.40000000e+01 
88.670   1.04000000e+02 
88.634   1.08000000e+02 
88.598   1.13000000e+02 
88.562   1.14000000e+02 
88.526   1.16000000e+02 
88.490   1.04000000e+02 
88.454   1.02000000e+02 
88.418   1.10000000e+02 
88.382   9.00000000e+01 
88.346   1.04000000e+02 
88.310   1.28000000e+02 
88.274   9.70000000e+01 
88.238   1.03000000e+02 
88.202   1.01000000e+02 
88.166   1.09000000e+02 
88.130   1.07000000e+02 
88.095   1.08000000e+02 
88.059   9.10000000e+01 
88.023   1.03000000e+02 

