EXPERIMENT FILE
Version = 2

[ Experiment Parameters ]
Experiment Description= <none> 
Number_of_Regions_in_Experiment= 1 

Original_File_name= C:\alexesca\data\10222012_Au _4f_59nuetral-39_Mono225.xps 
Instrument= HP ESCA West
Date= 10-22-2012
Time=  12:02:35

[ Layer Parameters ]
Layer_Type= XPS

[ Region 1 Parameters ]
Region_Description = Au 4f Dithered Scan                
BEcenter(eV) = 93.000000
BEwidth(eV) = 10.000000
BEstep(eV) = 0.035937
Dwell_Time(sec) = 1.000000
N_o_scans = 1  
N_o_Channels = 278  
Scan_mode = 0  (DITHERED)

[ L= 1 R= 1 ]
BEcenter= 93.000  
BEwidth= -9.955  
Excitation= 1486.600
Time_p_channel= 256.000 
Size= 278
97.977   4.50000000e+01 
97.941   5.50000000e+01 
97.905   5.40000000e+01 
97.870   5.90000000e+01 
97.834   5.00000000e+01 
97.798   6.50000000e+01 
97.762   3.80000000e+01 
97.726   6.80000000e+01 
97.690   5.30000000e+01 
97.654   5.30000000e+01 
97.618   5.20000000e+01 
97.582   5.20000000e+01 
97.546   4.70000000e+01 
97.510   5.80000000e+01 
97.474   4.40000000e+01 
97.438   7.30000000e+01 
97.402   5.20000000e+01 
97.366   6.10000000e+01 
97.330   4.90000000e+01 
97.295   6.40000000e+01 
97.259   5.20000000e+01 
97.223   6.40000000e+01 
97.187   5.10000000e+01 
97.151   5.30000000e+01 
97.115   6.00000000e+01 
97.079   5.60000000e+01 
97.043   6.10000000e+01 
97.007   7.30000000e+01 
96.971   5.00000000e+01 
96.935   6.60000000e+01 
96.899   6.70000000e+01 
96.863   6.60000000e+01 
96.827   5.00000000e+01 
96.791   6.70000000e+01 
96.755   6.70000000e+01 
96.720   6.80000000e+01 
96.684   6.20000000e+01 
96.648   6.80000000e+01 
96.612   8.70000000e+01 
96.576   8.80000000e+01 
96.540   8.00000000e+01 
96.504   6.50000000e+01 
96.468   8.00000000e+01 
96.432   8.10000000e+01 
96.396   8.60000000e+01 
96.360   7.60000000e+01 
96.324   9.00000000e+01 
96.288   8.00000000e+01 
96.252   9.70000000e+01 
96.216   1.17000000e+02 
96.180   1.15000000e+02 
96.145   1.22000000e+02 
96.109   1.02000000e+02 
96.073   1.29000000e+02 
96.037   1.34000000e+02 
96.001   1.28000000e+02 
95.965   1.27000000e+02 
95.929   1.59000000e+02 
95.893   1.64000000e+02 
95.857   1.39000000e+02 
95.821   2.03000000e+02 
95.785   2.04000000e+02 
95.749   1.64000000e+02 
95.713   1.88000000e+02 
95.677   1.92000000e+02 
95.641   2.03000000e+02 
95.605   2.27000000e+02 
95.570   2.28000000e+02 
95.534   2.34000000e+02 
95.498   2.52000000e+02 
95.462   2.41000000e+02 
95.426   2.25000000e+02 
95.390   2.68000000e+02 
95.354   2.48000000e+02 
95.318   2.92000000e+02 
95.282   2.60000000e+02 
95.246   2.45000000e+02 
95.210   2.40000000e+02 
95.174   2.40000000e+02 
95.138   2.47000000e+02 
95.102   2.08000000e+02 
95.066   2.26000000e+02 
95.030   2.00000000e+02 
94.995   2.12000000e+02 
94.959   1.76000000e+02 
94.923   1.72000000e+02 
94.887   1.69000000e+02 
94.851   1.32000000e+02 
94.815   1.13000000e+02 
94.779   1.28000000e+02 
94.743   1.06000000e+02 
94.707   1.10000000e+02 
94.671   1.04000000e+02 
94.635   8.60000000e+01 
94.599   8.70000000e+01 
94.563   8.70000000e+01 
94.527   8.00000000e+01 
94.491   8.90000000e+01 
94.455   6.70000000e+01 
94.420   6.00000000e+01 
94.384   6.90000000e+01 
94.348   5.30000000e+01 
94.312   6.80000000e+01 
94.276   5.30000000e+01 
94.240   6.60000000e+01 
94.204   5.90000000e+01 
94.168   6.00000000e+01 
94.132   6.40000000e+01 
94.096   5.00000000e+01 
94.060   4.70000000e+01 
94.024   4.80000000e+01 
93.988   4.30000000e+01 
93.952   3.70000000e+01 
93.916   6.30000000e+01 
93.880   4.80000000e+01 
93.845   5.00000000e+01 
93.809   4.10000000e+01 
93.773   4.50000000e+01 
93.737   6.10000000e+01 
93.701   5.40000000e+01 
93.665   5.30000000e+01 
93.629   5.80000000e+01 
93.593   6.10000000e+01 
93.557   5.40000000e+01 
93.521   4.80000000e+01 
93.485   5.20000000e+01 
93.449   5.60000000e+01 
93.413   5.30000000e+01 
93.377   4.30000000e+01 
93.341   4.70000000e+01 
93.305   4.50000000e+01 
93.270   5.70000000e+01 
93.234   4.90000000e+01 
93.198   6.60000000e+01 
93.162   6.30000000e+01 
93.126   6.20000000e+01 
93.090   5.40000000e+01 
93.054   7.10000000e+01 
93.018   6.60000000e+01 
92.982   7.20000000e+01 
92.946   4.90000000e+01 
92.910   7.00000000e+01 
92.874   6.20000000e+01 
92.838   8.30000000e+01 
92.802   7.20000000e+01 
92.766   8.00000000e+01 
92.730   8.80000000e+01 
92.695   7.20000000e+01 
92.659   7.80000000e+01 
92.623   9.10000000e+01 
92.587   1.09000000e+02 
92.551   1.09000000e+02 
92.515   1.03000000e+02 
92.479   9.00000000e+01 
92.443   1.05000000e+02 
92.407   1.36000000e+02 
92.371   1.47000000e+02 
92.335   1.49000000e+02 
92.299   1.59000000e+02 
92.263   1.74000000e+02 
92.227   1.46000000e+02 
92.191   1.54000000e+02 
92.155   1.86000000e+02 
92.120   1.85000000e+02 
92.084   2.12000000e+02 
92.048   1.98000000e+02 
92.012   2.29000000e+02 
91.976   2.28000000e+02 
91.940   2.29000000e+02 
91.904   2.36000000e+02 
91.868   2.45000000e+02 
91.832   2.50000000e+02 
91.796   2.87000000e+02 
91.760   2.84000000e+02 
91.724   2.93000000e+02 
91.688   3.13000000e+02 
91.652   3.15000000e+02 
91.616   3.17000000e+02 
91.580   2.96000000e+02 
91.545   2.96000000e+02 
91.509   3.03000000e+02 
91.473   2.86000000e+02 
91.437   2.71000000e+02 
91.401   2.84000000e+02 
91.365   2.65000000e+02 
91.329   2.37000000e+02 
91.293   2.11000000e+02 
91.257   1.90000000e+02 
91.221   1.74000000e+02 
91.185   1.36000000e+02 
91.149   1.65000000e+02 
91.113   1.46000000e+02 
91.077   1.31000000e+02 
91.041   1.24000000e+02 
91.005   1.05000000e+02 
90.970   1.12000000e+02 
90.934   9.10000000e+01 
90.898   8.00000000e+01 
90.862   7.90000000e+01 
90.826   6.80000000e+01 
90.790   6.00000000e+01 
90.754   5.70000000e+01 
90.718   6.70000000e+01 
90.682   6.20000000e+01 
90.646   5.80000000e+01 
90.610   6.10000000e+01 
90.574   4.70000000e+01 
90.538   3.00000000e+01 
90.502   4.30000000e+01 
90.466   3.90000000e+01 
90.430   5.00000000e+01 
90.395   5.10000000e+01 
90.359   4.80000000e+01 
90.323   3.30000000e+01 
90.287   4.20000000e+01 
90.251   4.00000000e+01 
90.215   4.00000000e+01 
90.179   3.20000000e+01 
90.143   4.50000000e+01 
90.107   3.60000000e+01 
90.071   3.10000000e+01 
90.035   3.00000000e+01 
89.999   2.50000000e+01 
89.963   3.10000000e+01 
89.927   3.50000000e+01 
89.891   3.90000000e+01 
89.855   3.10000000e+01 
89.820   3.10000000e+01 
89.784   3.20000000e+01 
89.748   2.20000000e+01 
89.712   2.10000000e+01 
89.676   2.40000000e+01 
89.640   3.30000000e+01 
89.604   3.10000000e+01 
89.568   1.90000000e+01 
89.532   2.70000000e+01 
89.496   2.70000000e+01 
89.460   2.60000000e+01 
89.424   3.30000000e+01 
89.388   2.60000000e+01 
89.352   2.90000000e+01 
89.316   3.00000000e+01 
89.280   2.10000000e+01 
89.245   3.60000000e+01 
89.209   2.60000000e+01 
89.173   4.10000000e+01 
89.137   2.40000000e+01 
89.101   2.40000000e+01 
89.065   2.70000000e+01 
89.029   2.40000000e+01 
88.993   2.60000000e+01 
88.957   2.20000000e+01 
88.921   2.70000000e+01 
88.885   3.00000000e+01 
88.849   1.80000000e+01 
88.813   3.00000000e+01 
88.777   2.50000000e+01 
88.741   2.50000000e+01 
88.705   2.30000000e+01 
88.670   2.50000000e+01 
88.634   4.60000000e+01 
88.598   2.70000000e+01 
88.562   2.20000000e+01 
88.526   3.50000000e+01 
88.490   2.90000000e+01 
88.454   1.60000000e+01 
88.418   2.60000000e+01 
88.382   2.60000000e+01 
88.346   2.70000000e+01 
88.310   2.10000000e+01 
88.274   2.60000000e+01 
88.238   2.40000000e+01 
88.202   2.60000000e+01 
88.166   2.90000000e+01 
88.130   2.40000000e+01 
88.095   2.00000000e+01 
88.059   2.80000000e+01 
88.023   2.60000000e+01 

