EXPERIMENT FILE
Version = 2

[ Experiment Parameters ]
Experiment Description= <none> 
Number_of_Regions_in_Experiment= 1 

Original_File_name= C:\alexesca\data\10222012_Au _4f_59nuetral-9_Mono225.xps 
Instrument= HP ESCA West
Date= 10-22-2012
Time=  12:28:06

[ Layer Parameters ]
Layer_Type= XPS

[ Region 1 Parameters ]
Region_Description = Au 4f Dithered Scan                
BEcenter(eV) = 93.000000
BEwidth(eV) = 10.000000
BEstep(eV) = 0.035937
Dwell_Time(sec) = 1.000000
N_o_scans = 1  
N_o_Channels = 278  
Scan_mode = 0  (DITHERED)

[ L= 1 R= 1 ]
BEcenter= 93.000  
BEwidth= -9.955  
Excitation= 1486.600
Time_p_channel= 256.000 
Size= 278
97.977   2.60000000e+02 
97.941   2.60000000e+02 
97.905   2.74000000e+02 
97.870   2.78000000e+02 
97.834   2.61000000e+02 
97.798   2.55000000e+02 
97.762   2.69000000e+02 
97.726   2.50000000e+02 
97.690   2.58000000e+02 
97.654   2.72000000e+02 
97.618   2.59000000e+02 
97.582   2.84000000e+02 
97.546   2.85000000e+02 
97.510   2.67000000e+02 
97.474   2.95000000e+02 
97.438   3.00000000e+02 
97.402   2.63000000e+02 
97.366   2.84000000e+02 
97.330   3.03000000e+02 
97.295   3.18000000e+02 
97.259   2.84000000e+02 
97.223   3.39000000e+02 
97.187   2.91000000e+02 
97.151   3.42000000e+02 
97.115   3.12000000e+02 
97.079   3.66000000e+02 
97.043   3.59000000e+02 
97.007   4.08000000e+02 
96.971   3.66000000e+02 
96.935   3.38000000e+02 
96.899   3.88000000e+02 
96.863   3.99000000e+02 
96.827   4.53000000e+02 
96.791   4.08000000e+02 
96.755   4.38000000e+02 
96.720   4.90000000e+02 
96.684   4.87000000e+02 
96.648   5.39000000e+02 
96.612   5.20000000e+02 
96.576   5.31000000e+02 
96.540   5.37000000e+02 
96.504   5.40000000e+02 
96.468   6.17000000e+02 
96.432   6.31000000e+02 
96.396   6.12000000e+02 
96.360   6.36000000e+02 
96.324   6.66000000e+02 
96.288   6.56000000e+02 
96.252   6.76000000e+02 
96.216   7.07000000e+02 
96.180   7.35000000e+02 
96.145   8.09000000e+02 
96.109   7.86000000e+02 
96.073   8.62000000e+02 
96.037   9.11000000e+02 
96.001   9.72000000e+02 
95.965   9.19000000e+02 
95.929   9.79000000e+02 
95.893   9.81000000e+02 
95.857   1.04500000e+03 
95.821   9.95000000e+02 
95.785   1.09100000e+03 
95.749   1.09200000e+03 
95.713   1.13700000e+03 
95.677   1.17200000e+03 
95.641   1.24900000e+03 
95.605   1.19300000e+03 
95.570   1.34700000e+03 
95.534   1.27700000e+03 
95.498   1.26500000e+03 
95.462   1.33800000e+03 
95.426   1.34600000e+03 
95.390   1.25100000e+03 
95.354   1.37500000e+03 
95.318   1.31100000e+03 
95.282   1.24200000e+03 
95.246   1.25100000e+03 
95.210   1.19700000e+03 
95.174   1.17700000e+03 
95.138   1.06500000e+03 
95.102   1.04900000e+03 
95.066   9.84000000e+02 
95.030   9.31000000e+02 
94.995   7.89000000e+02 
94.959   7.52000000e+02 
94.923   7.26000000e+02 
94.887   6.54000000e+02 
94.851   6.70000000e+02 
94.815   6.18000000e+02 
94.779   5.48000000e+02 
94.743   5.12000000e+02 
94.707   4.97000000e+02 
94.671   4.63000000e+02 
94.635   4.21000000e+02 
94.599   3.97000000e+02 
94.563   3.78000000e+02 
94.527   4.03000000e+02 
94.491   3.81000000e+02 
94.455   3.51000000e+02 
94.420   3.49000000e+02 
94.384   2.86000000e+02 
94.348   2.90000000e+02 
94.312   2.81000000e+02 
94.276   2.80000000e+02 
94.240   2.96000000e+02 
94.204   2.82000000e+02 
94.168   3.13000000e+02 
94.132   2.94000000e+02 
94.096   3.17000000e+02 
94.060   2.63000000e+02 
94.024   2.76000000e+02 
93.988   2.79000000e+02 
93.952   2.75000000e+02 
93.916   2.57000000e+02 
93.880   2.88000000e+02 
93.845   2.68000000e+02 
93.809   2.71000000e+02 
93.773   2.75000000e+02 
93.737   2.88000000e+02 
93.701   3.07000000e+02 
93.665   2.78000000e+02 
93.629   3.19000000e+02 
93.593   3.20000000e+02 
93.557   3.21000000e+02 
93.521   2.92000000e+02 
93.485   3.21000000e+02 
93.449   3.44000000e+02 
93.413   3.47000000e+02 
93.377   3.89000000e+02 
93.341   3.79000000e+02 
93.305   3.56000000e+02 
93.270   3.83000000e+02 
93.234   3.86000000e+02 
93.198   3.82000000e+02 
93.162   4.34000000e+02 
93.126   4.01000000e+02 
93.090   4.38000000e+02 
93.054   4.82000000e+02 
93.018   4.86000000e+02 
92.982   5.05000000e+02 
92.946   5.54000000e+02 
92.910   5.37000000e+02 
92.874   5.82000000e+02 
92.838   6.22000000e+02 
92.802   6.37000000e+02 
92.766   6.80000000e+02 
92.730   6.77000000e+02 
92.695   7.10000000e+02 
92.659   7.33000000e+02 
92.623   7.69000000e+02 
92.587   7.99000000e+02 
92.551   7.77000000e+02 
92.515   7.98000000e+02 
92.479   8.78000000e+02 
92.443   9.18000000e+02 
92.407   1.00400000e+03 
92.371   9.95000000e+02 
92.335   1.04500000e+03 
92.299   1.06900000e+03 
92.263   1.18300000e+03 
92.227   1.16800000e+03 
92.191   1.19800000e+03 
92.155   1.25000000e+03 
92.120   1.25400000e+03 
92.084   1.33700000e+03 
92.048   1.39100000e+03 
92.012   1.44000000e+03 
91.976   1.43700000e+03 
91.940   1.42800000e+03 
91.904   1.54800000e+03 
91.868   1.54600000e+03 
91.832   1.55400000e+03 
91.796   1.55000000e+03 
91.760   1.60900000e+03 
91.724   1.59700000e+03 
91.688   1.49500000e+03 
91.652   1.52900000e+03 
91.616   1.53100000e+03 
91.580   1.49200000e+03 
91.545   1.45700000e+03 
91.509   1.41900000e+03 
91.473   1.32300000e+03 
91.437   1.17700000e+03 
91.401   1.22000000e+03 
91.365   1.11200000e+03 
91.329   1.02200000e+03 
91.293   9.96000000e+02 
91.257   8.62000000e+02 
91.221   7.72000000e+02 
91.185   7.24000000e+02 
91.149   6.22000000e+02 
91.113   5.59000000e+02 
91.077   5.24000000e+02 
91.041   4.84000000e+02 
91.005   4.30000000e+02 
90.970   4.12000000e+02 
90.934   4.09000000e+02 
90.898   3.73000000e+02 
90.862   3.38000000e+02 
90.826   2.60000000e+02 
90.790   2.73000000e+02 
90.754   2.54000000e+02 
90.718   2.36000000e+02 
90.682   2.56000000e+02 
90.646   2.28000000e+02 
90.610   2.16000000e+02 
90.574   1.84000000e+02 
90.538   2.12000000e+02 
90.502   1.91000000e+02 
90.466   1.91000000e+02 
90.430   1.69000000e+02 
90.395   1.91000000e+02 
90.359   1.77000000e+02 
90.323   1.59000000e+02 
90.287   1.46000000e+02 
90.251   1.67000000e+02 
90.215   1.70000000e+02 
90.179   1.47000000e+02 
90.143   1.48000000e+02 
90.107   1.48000000e+02 
90.071   1.22000000e+02 
90.035   1.58000000e+02 
89.999   1.52000000e+02 
89.963   1.42000000e+02 
89.927   1.22000000e+02 
89.891   1.29000000e+02 
89.855   1.29000000e+02 
89.820   1.26000000e+02 
89.784   1.27000000e+02 
89.748   1.26000000e+02 
89.712   1.22000000e+02 
89.676   1.20000000e+02 
89.640   1.38000000e+02 
89.604   1.16000000e+02 
89.568   1.06000000e+02 
89.532   1.42000000e+02 
89.496   1.16000000e+02 
89.460   1.26000000e+02 
89.424   1.14000000e+02 
89.388   1.31000000e+02 
89.352   1.04000000e+02 
89.316   1.21000000e+02 
89.280   1.08000000e+02 
89.245   1.10000000e+02 
89.209   1.21000000e+02 
89.173   1.05000000e+02 
89.137   1.19000000e+02 
89.101   1.19000000e+02 
89.065   1.16000000e+02 
89.029   1.25000000e+02 
88.993   1.13000000e+02 
88.957   1.20000000e+02 
88.921   9.20000000e+01 
88.885   1.02000000e+02 
88.849   1.01000000e+02 
88.813   1.02000000e+02 
88.777   1.15000000e+02 
88.741   1.09000000e+02 
88.705   1.06000000e+02 
88.670   9.20000000e+01 
88.634   1.21000000e+02 
88.598   1.06000000e+02 
88.562   9.50000000e+01 
88.526   1.14000000e+02 
88.490   1.02000000e+02 
88.454   9.40000000e+01 
88.418   1.24000000e+02 
88.382   1.05000000e+02 
88.346   9.60000000e+01 
88.310   1.08000000e+02 
88.274   1.01000000e+02 
88.238   9.70000000e+01 
88.202   9.80000000e+01 
88.166   1.08000000e+02 
88.130   8.20000000e+01 
88.095   9.50000000e+01 
88.059   9.60000000e+01 
88.023   9.90000000e+01 

