EXPERIMENT FILE
Version = 2

[ Experiment Parameters ]
Experiment Description= <none> 
Number_of_Regions_in_Experiment= 1 

Original_File_name= C:\alexesca\data\10232012_Au _4f_68nuetral-26_Mono210.xps 
Instrument= HP ESCA West
Date= 10-23-2012
Time=  17:26:19

[ Layer Parameters ]
Layer_Type= XPS

[ Region 1 Parameters ]
Region_Description = Au 4f Dithered Scan                
BEcenter(eV) = 93.000000
BEwidth(eV) = 10.000000
BEstep(eV) = 0.035937
Dwell_Time(sec) = 1.000000
N_o_scans = 1  
N_o_Channels = 278  
Scan_mode = 0  (DITHERED)

[ L= 1 R= 1 ]
BEcenter= 93.000  
BEwidth= -9.955  
Excitation= 1486.600
Time_p_channel= 256.000 
Size= 278
97.977   1.16000000e+02 
97.941   1.14000000e+02 
97.905   1.10000000e+02 
97.870   1.20000000e+02 
97.834   1.19000000e+02 
97.798   1.17000000e+02 
97.762   1.14000000e+02 
97.726   1.23000000e+02 
97.690   1.09000000e+02 
97.654   1.26000000e+02 
97.618   1.14000000e+02 
97.582   1.29000000e+02 
97.546   1.21000000e+02 
97.510   1.08000000e+02 
97.474   1.29000000e+02 
97.438   9.80000000e+01 
97.402   1.06000000e+02 
97.366   1.20000000e+02 
97.330   1.01000000e+02 
97.295   1.04000000e+02 
97.259   1.27000000e+02 
97.223   1.04000000e+02 
97.187   1.42000000e+02 
97.151   1.05000000e+02 
97.115   1.18000000e+02 
97.079   9.80000000e+01 
97.043   1.09000000e+02 
97.007   1.29000000e+02 
96.971   1.21000000e+02 
96.935   1.28000000e+02 
96.899   1.31000000e+02 
96.863   1.20000000e+02 
96.827   1.29000000e+02 
96.791   1.28000000e+02 
96.755   1.35000000e+02 
96.720   1.20000000e+02 
96.684   1.40000000e+02 
96.648   1.20000000e+02 
96.612   1.35000000e+02 
96.576   1.38000000e+02 
96.540   1.43000000e+02 
96.504   1.69000000e+02 
96.468   1.34000000e+02 
96.432   1.47000000e+02 
96.396   1.44000000e+02 
96.360   1.53000000e+02 
96.324   1.55000000e+02 
96.288   1.63000000e+02 
96.252   1.89000000e+02 
96.216   1.73000000e+02 
96.180   1.92000000e+02 
96.145   1.72000000e+02 
96.109   2.18000000e+02 
96.073   1.68000000e+02 
96.037   1.90000000e+02 
96.001   2.16000000e+02 
95.965   2.23000000e+02 
95.929   2.56000000e+02 
95.893   2.53000000e+02 
95.857   2.46000000e+02 
95.821   2.66000000e+02 
95.785   2.60000000e+02 
95.749   2.94000000e+02 
95.713   3.03000000e+02 
95.677   3.06000000e+02 
95.641   3.27000000e+02 
95.605   3.50000000e+02 
95.570   3.78000000e+02 
95.534   3.75000000e+02 
95.498   3.96000000e+02 
95.462   4.24000000e+02 
95.426   4.61000000e+02 
95.390   4.85000000e+02 
95.354   4.96000000e+02 
95.318   5.00000000e+02 
95.282   5.24000000e+02 
95.246   5.93000000e+02 
95.210   6.05000000e+02 
95.174   5.91000000e+02 
95.138   5.82000000e+02 
95.102   6.17000000e+02 
95.066   6.22000000e+02 
95.030   6.35000000e+02 
94.995   6.39000000e+02 
94.959   6.08000000e+02 
94.923   6.31000000e+02 
94.887   5.71000000e+02 
94.851   5.45000000e+02 
94.815   5.04000000e+02 
94.779   4.52000000e+02 
94.743   4.84000000e+02 
94.707   3.99000000e+02 
94.671   3.60000000e+02 
94.635   3.52000000e+02 
94.599   3.34000000e+02 
94.563   3.00000000e+02 
94.527   2.63000000e+02 
94.491   2.29000000e+02 
94.455   2.07000000e+02 
94.420   2.15000000e+02 
94.384   2.16000000e+02 
94.348   1.65000000e+02 
94.312   1.70000000e+02 
94.276   1.63000000e+02 
94.240   1.43000000e+02 
94.204   1.66000000e+02 
94.168   1.56000000e+02 
94.132   1.40000000e+02 
94.096   1.32000000e+02 
94.060   1.20000000e+02 
94.024   1.18000000e+02 
93.988   1.22000000e+02 
93.952   1.02000000e+02 
93.916   1.19000000e+02 
93.880   1.18000000e+02 
93.845   1.41000000e+02 
93.809   1.24000000e+02 
93.773   1.20000000e+02 
93.737   1.28000000e+02 
93.701   1.40000000e+02 
93.665   1.03000000e+02 
93.629   1.12000000e+02 
93.593   1.22000000e+02 
93.557   1.19000000e+02 
93.521   1.17000000e+02 
93.485   1.04000000e+02 
93.449   1.24000000e+02 
93.413   8.60000000e+01 
93.377   1.15000000e+02 
93.341   9.20000000e+01 
93.305   1.22000000e+02 
93.270   9.60000000e+01 
93.234   1.06000000e+02 
93.198   1.10000000e+02 
93.162   1.14000000e+02 
93.126   1.32000000e+02 
93.090   1.20000000e+02 
93.054   1.10000000e+02 
93.018   1.13000000e+02 
92.982   1.12000000e+02 
92.946   1.45000000e+02 
92.910   1.25000000e+02 
92.874   1.19000000e+02 
92.838   1.43000000e+02 
92.802   1.20000000e+02 
92.766   1.27000000e+02 
92.730   1.58000000e+02 
92.695   1.51000000e+02 
92.659   1.59000000e+02 
92.623   1.56000000e+02 
92.587   1.80000000e+02 
92.551   1.49000000e+02 
92.515   1.72000000e+02 
92.479   1.82000000e+02 
92.443   2.12000000e+02 
92.407   2.36000000e+02 
92.371   2.33000000e+02 
92.335   2.21000000e+02 
92.299   1.98000000e+02 
92.263   2.48000000e+02 
92.227   2.39000000e+02 
92.191   2.68000000e+02 
92.155   3.09000000e+02 
92.120   2.84000000e+02 
92.084   3.45000000e+02 
92.048   3.39000000e+02 
92.012   3.71000000e+02 
91.976   3.60000000e+02 
91.940   4.14000000e+02 
91.904   4.14000000e+02 
91.868   4.71000000e+02 
91.832   4.55000000e+02 
91.796   4.87000000e+02 
91.760   5.35000000e+02 
91.724   5.76000000e+02 
91.688   6.05000000e+02 
91.652   6.17000000e+02 
91.616   6.53000000e+02 
91.580   6.83000000e+02 
91.545   7.04000000e+02 
91.509   7.58000000e+02 
91.473   7.00000000e+02 
91.437   7.40000000e+02 
91.401   7.75000000e+02 
91.365   7.90000000e+02 
91.329   7.52000000e+02 
91.293   7.19000000e+02 
91.257   7.00000000e+02 
91.221   7.24000000e+02 
91.185   7.32000000e+02 
91.149   6.03000000e+02 
91.113   5.91000000e+02 
91.077   4.91000000e+02 
91.041   5.12000000e+02 
91.005   4.42000000e+02 
90.970   3.75000000e+02 
90.934   3.67000000e+02 
90.898   3.06000000e+02 
90.862   2.82000000e+02 
90.826   2.39000000e+02 
90.790   2.56000000e+02 
90.754   1.71000000e+02 
90.718   1.97000000e+02 
90.682   1.92000000e+02 
90.646   1.63000000e+02 
90.610   1.29000000e+02 
90.574   1.33000000e+02 
90.538   1.32000000e+02 
90.502   9.70000000e+01 
90.466   1.02000000e+02 
90.430   1.07000000e+02 
90.395   9.60000000e+01 
90.359   9.40000000e+01 
90.323   8.60000000e+01 
90.287   8.90000000e+01 
90.251   7.90000000e+01 
90.215   8.40000000e+01 
90.179   7.60000000e+01 
90.143   6.50000000e+01 
90.107   8.60000000e+01 
90.071   7.10000000e+01 
90.035   7.30000000e+01 
89.999   7.50000000e+01 
89.963   6.10000000e+01 
89.927   7.60000000e+01 
89.891   8.80000000e+01 
89.855   8.30000000e+01 
89.820   6.40000000e+01 
89.784   7.10000000e+01 
89.748   6.70000000e+01 
89.712   7.20000000e+01 
89.676   6.80000000e+01 
89.640   5.90000000e+01 
89.604   7.70000000e+01 
89.568   6.00000000e+01 
89.532   5.30000000e+01 
89.496   6.20000000e+01 
89.460   5.80000000e+01 
89.424   6.60000000e+01 
89.388   6.10000000e+01 
89.352   6.20000000e+01 
89.316   4.50000000e+01 
89.280   5.60000000e+01 
89.245   4.10000000e+01 
89.209   4.90000000e+01 
89.173   5.70000000e+01 
89.137   5.90000000e+01 
89.101   5.20000000e+01 
89.065   5.30000000e+01 
89.029   5.20000000e+01 
88.993   5.80000000e+01 
88.957   4.70000000e+01 
88.921   6.10000000e+01 
88.885   6.00000000e+01 
88.849   5.30000000e+01 
88.813   4.60000000e+01 
88.777   5.40000000e+01 
88.741   6.00000000e+01 
88.705   6.30000000e+01 
88.670   4.50000000e+01 
88.634   4.40000000e+01 
88.598   4.40000000e+01 
88.562   4.10000000e+01 
88.526   5.00000000e+01 
88.490   4.00000000e+01 
88.454   4.70000000e+01 
88.418   4.60000000e+01 
88.382   4.50000000e+01 
88.346   4.60000000e+01 
88.310   5.50000000e+01 
88.274   5.80000000e+01 
88.238   5.50000000e+01 
88.202   4.80000000e+01 
88.166   4.70000000e+01 
88.130   5.30000000e+01 
88.095   5.70000000e+01 
88.059   5.10000000e+01 
88.023   4.90000000e+01 

