EXPERIMENT FILE
Version = 2

[ Experiment Parameters ]
Experiment Description= <none> 
Number_of_Regions_in_Experiment= 1 

Original_File_name= C:\alexesca\data\10232012_Au _4f_61nuetral-11_Mono230.xps 
Instrument= HP ESCA West
Date= 10-23-2012
Time=  14:29:11

[ Layer Parameters ]
Layer_Type= XPS

[ Region 1 Parameters ]
Region_Description = Au 4f Dithered Scan                
BEcenter(eV) = 93.000000
BEwidth(eV) = 10.000000
BEstep(eV) = 0.035937
Dwell_Time(sec) = 1.000000
N_o_scans = 1  
N_o_Channels = 278  
Scan_mode = 0  (DITHERED)

[ L= 1 R= 1 ]
BEcenter= 93.000  
BEwidth= -9.955  
Excitation= 1486.600
Time_p_channel= 256.000 
Size= 278
97.977   2.60000000e+02 
97.941   2.32000000e+02 
97.905   2.80000000e+02 
97.870   2.67000000e+02 
97.834   2.54000000e+02 
97.798   2.97000000e+02 
97.762   2.72000000e+02 
97.726   2.64000000e+02 
97.690   2.57000000e+02 
97.654   2.63000000e+02 
97.618   2.60000000e+02 
97.582   2.38000000e+02 
97.546   3.00000000e+02 
97.510   2.86000000e+02 
97.474   2.98000000e+02 
97.438   3.14000000e+02 
97.402   3.21000000e+02 
97.366   3.25000000e+02 
97.330   3.07000000e+02 
97.295   3.40000000e+02 
97.259   3.17000000e+02 
97.223   3.29000000e+02 
97.187   3.68000000e+02 
97.151   3.94000000e+02 
97.115   3.63000000e+02 
97.079   3.97000000e+02 
97.043   3.69000000e+02 
97.007   4.09000000e+02 
96.971   4.61000000e+02 
96.935   4.28000000e+02 
96.899   4.17000000e+02 
96.863   4.50000000e+02 
96.827   5.04000000e+02 
96.791   4.96000000e+02 
96.755   5.84000000e+02 
96.720   5.49000000e+02 
96.684   5.67000000e+02 
96.648   6.04000000e+02 
96.612   6.24000000e+02 
96.576   6.46000000e+02 
96.540   6.21000000e+02 
96.504   6.42000000e+02 
96.468   6.70000000e+02 
96.432   7.96000000e+02 
96.396   8.17000000e+02 
96.360   8.06000000e+02 
96.324   8.51000000e+02 
96.288   8.47000000e+02 
96.252   8.74000000e+02 
96.216   8.17000000e+02 
96.180   9.55000000e+02 
96.145   9.31000000e+02 
96.109   9.78000000e+02 
96.073   1.00400000e+03 
96.037   1.00000000e+03 
96.001   1.04600000e+03 
95.965   1.04500000e+03 
95.929   1.17400000e+03 
95.893   1.04800000e+03 
95.857   1.17200000e+03 
95.821   1.07300000e+03 
95.785   1.19200000e+03 
95.749   1.16600000e+03 
95.713   1.13900000e+03 
95.677   1.18000000e+03 
95.641   1.20600000e+03 
95.605   1.16000000e+03 
95.570   1.15300000e+03 
95.534   1.08200000e+03 
95.498   1.11700000e+03 
95.462   1.05900000e+03 
95.426   1.00300000e+03 
95.390   9.93000000e+02 
95.354   9.69000000e+02 
95.318   8.40000000e+02 
95.282   8.03000000e+02 
95.246   7.82000000e+02 
95.210   7.35000000e+02 
95.174   6.81000000e+02 
95.138   6.12000000e+02 
95.102   5.85000000e+02 
95.066   4.99000000e+02 
95.030   5.04000000e+02 
94.995   4.29000000e+02 
94.959   4.24000000e+02 
94.923   4.11000000e+02 
94.887   3.87000000e+02 
94.851   4.06000000e+02 
94.815   3.26000000e+02 
94.779   3.33000000e+02 
94.743   3.42000000e+02 
94.707   3.19000000e+02 
94.671   2.98000000e+02 
94.635   2.85000000e+02 
94.599   2.59000000e+02 
94.563   2.99000000e+02 
94.527   2.79000000e+02 
94.491   2.92000000e+02 
94.455   2.71000000e+02 
94.420   2.63000000e+02 
94.384   2.61000000e+02 
94.348   2.66000000e+02 
94.312   2.47000000e+02 
94.276   2.34000000e+02 
94.240   2.52000000e+02 
94.204   2.43000000e+02 
94.168   2.72000000e+02 
94.132   2.63000000e+02 
94.096   2.78000000e+02 
94.060   2.67000000e+02 
94.024   2.65000000e+02 
93.988   2.60000000e+02 
93.952   2.81000000e+02 
93.916   2.69000000e+02 
93.880   3.01000000e+02 
93.845   2.88000000e+02 
93.809   3.19000000e+02 
93.773   2.87000000e+02 
93.737   3.12000000e+02 
93.701   2.99000000e+02 
93.665   3.15000000e+02 
93.629   3.44000000e+02 
93.593   3.54000000e+02 
93.557   3.71000000e+02 
93.521   4.02000000e+02 
93.485   3.73000000e+02 
93.449   3.67000000e+02 
93.413   3.99000000e+02 
93.377   4.52000000e+02 
93.341   4.08000000e+02 
93.305   4.32000000e+02 
93.270   4.62000000e+02 
93.234   4.78000000e+02 
93.198   5.27000000e+02 
93.162   5.54000000e+02 
93.126   5.73000000e+02 
93.090   6.15000000e+02 
93.054   6.06000000e+02 
93.018   6.45000000e+02 
92.982   6.88000000e+02 
92.946   7.05000000e+02 
92.910   7.09000000e+02 
92.874   7.45000000e+02 
92.838   8.34000000e+02 
92.802   7.72000000e+02 
92.766   8.22000000e+02 
92.730   8.11000000e+02 
92.695   9.31000000e+02 
92.659   9.40000000e+02 
92.623   1.01200000e+03 
92.587   1.04200000e+03 
92.551   1.06500000e+03 
92.515   1.14000000e+03 
92.479   1.11700000e+03 
92.443   1.11000000e+03 
92.407   1.19500000e+03 
92.371   1.19000000e+03 
92.335   1.19300000e+03 
92.299   1.31200000e+03 
92.263   1.33700000e+03 
92.227   1.28700000e+03 
92.191   1.32200000e+03 
92.155   1.31000000e+03 
92.120   1.41800000e+03 
92.084   1.37500000e+03 
92.048   1.42600000e+03 
92.012   1.40300000e+03 
91.976   1.45000000e+03 
91.940   1.40100000e+03 
91.904   1.38500000e+03 
91.868   1.30500000e+03 
91.832   1.26700000e+03 
91.796   1.26800000e+03 
91.760   1.19100000e+03 
91.724   1.05800000e+03 
91.688   1.04600000e+03 
91.652   9.96000000e+02 
91.616   8.64000000e+02 
91.580   8.35000000e+02 
91.545   7.66000000e+02 
91.509   7.42000000e+02 
91.473   6.66000000e+02 
91.437   5.95000000e+02 
91.401   4.79000000e+02 
91.365   4.89000000e+02 
91.329   4.07000000e+02 
91.293   3.99000000e+02 
91.257   3.31000000e+02 
91.221   3.24000000e+02 
91.185   3.05000000e+02 
91.149   3.06000000e+02 
91.113   2.64000000e+02 
91.077   2.29000000e+02 
91.041   2.28000000e+02 
91.005   2.48000000e+02 
90.970   2.20000000e+02 
90.934   2.18000000e+02 
90.898   1.90000000e+02 
90.862   2.05000000e+02 
90.826   1.87000000e+02 
90.790   1.77000000e+02 
90.754   1.68000000e+02 
90.718   1.64000000e+02 
90.682   1.64000000e+02 
90.646   1.55000000e+02 
90.610   1.70000000e+02 
90.574   1.31000000e+02 
90.538   1.44000000e+02 
90.502   1.42000000e+02 
90.466   1.55000000e+02 
90.430   1.43000000e+02 
90.395   1.53000000e+02 
90.359   1.35000000e+02 
90.323   1.31000000e+02 
90.287   1.08000000e+02 
90.251   1.22000000e+02 
90.215   1.22000000e+02 
90.179   1.30000000e+02 
90.143   9.90000000e+01 
90.107   1.02000000e+02 
90.071   1.09000000e+02 
90.035   9.40000000e+01 
89.999   1.16000000e+02 
89.963   1.30000000e+02 
89.927   1.34000000e+02 
89.891   1.01000000e+02 
89.855   1.28000000e+02 
89.820   1.21000000e+02 
89.784   9.90000000e+01 
89.748   1.03000000e+02 
89.712   9.40000000e+01 
89.676   1.15000000e+02 
89.640   8.40000000e+01 
89.604   1.00000000e+02 
89.568   9.60000000e+01 
89.532   1.01000000e+02 
89.496   1.02000000e+02 
89.460   1.09000000e+02 
89.424   1.25000000e+02 
89.388   9.90000000e+01 
89.352   9.50000000e+01 
89.316   9.20000000e+01 
89.280   1.00000000e+02 
89.245   9.40000000e+01 
89.209   1.02000000e+02 
89.173   8.80000000e+01 
89.137   1.11000000e+02 
89.101   8.40000000e+01 
89.065   1.01000000e+02 
89.029   9.40000000e+01 
88.993   8.60000000e+01 
88.957   1.12000000e+02 
88.921   1.03000000e+02 
88.885   9.20000000e+01 
88.849   8.00000000e+01 
88.813   9.80000000e+01 
88.777   9.40000000e+01 
88.741   8.50000000e+01 
88.705   9.00000000e+01 
88.670   9.20000000e+01 
88.634   1.11000000e+02 
88.598   1.06000000e+02 
88.562   8.90000000e+01 
88.526   8.50000000e+01 
88.490   9.60000000e+01 
88.454   1.02000000e+02 
88.418   9.60000000e+01 
88.382   1.16000000e+02 
88.346   9.10000000e+01 
88.310   9.00000000e+01 
88.274   1.01000000e+02 
88.238   9.00000000e+01 
88.202   9.80000000e+01 
88.166   8.30000000e+01 
88.130   7.20000000e+01 
88.095   7.80000000e+01 
88.059   1.07000000e+02 
88.023   1.06000000e+02 

