EXPERIMENT FILE
Version = 2

[ Experiment Parameters ]
Experiment Description= <none> 
Number_of_Regions_in_Experiment= 1 

Original_File_name= C:\alexesca\data\10232012_Au _4f_68nuetral-8_Mono222.xps 
Instrument= HP ESCA West
Date= 10-23-2012
Time=  16:16:24

[ Layer Parameters ]
Layer_Type= XPS

[ Region 1 Parameters ]
Region_Description = Au 4f Dithered Scan                
BEcenter(eV) = 93.000000
BEwidth(eV) = 10.000000
BEstep(eV) = 0.035937
Dwell_Time(sec) = 1.000000
N_o_scans = 1  
N_o_Channels = 278  
Scan_mode = 0  (DITHERED)

[ L= 1 R= 1 ]
BEcenter= 93.000  
BEwidth= -9.955  
Excitation= 1486.600
Time_p_channel= 256.000 
Size= 278
97.977   2.63000000e+02 
97.941   2.68000000e+02 
97.905   2.93000000e+02 
97.870   3.09000000e+02 
97.834   2.79000000e+02 
97.798   2.79000000e+02 
97.762   2.88000000e+02 
97.726   2.75000000e+02 
97.690   2.97000000e+02 
97.654   2.90000000e+02 
97.618   2.79000000e+02 
97.582   2.89000000e+02 
97.546   2.89000000e+02 
97.510   2.99000000e+02 
97.474   3.30000000e+02 
97.438   2.91000000e+02 
97.402   3.31000000e+02 
97.366   3.10000000e+02 
97.330   2.99000000e+02 
97.295   3.17000000e+02 
97.259   3.46000000e+02 
97.223   3.41000000e+02 
97.187   3.67000000e+02 
97.151   3.27000000e+02 
97.115   3.44000000e+02 
97.079   3.45000000e+02 
97.043   3.75000000e+02 
97.007   3.86000000e+02 
96.971   4.03000000e+02 
96.935   3.97000000e+02 
96.899   4.51000000e+02 
96.863   4.24000000e+02 
96.827   4.71000000e+02 
96.791   4.62000000e+02 
96.755   4.65000000e+02 
96.720   4.91000000e+02 
96.684   4.99000000e+02 
96.648   5.19000000e+02 
96.612   5.39000000e+02 
96.576   5.59000000e+02 
96.540   5.53000000e+02 
96.504   5.79000000e+02 
96.468   6.05000000e+02 
96.432   6.02000000e+02 
96.396   6.90000000e+02 
96.360   6.68000000e+02 
96.324   7.20000000e+02 
96.288   7.43000000e+02 
96.252   7.75000000e+02 
96.216   8.23000000e+02 
96.180   8.28000000e+02 
96.145   8.21000000e+02 
96.109   8.53000000e+02 
96.073   8.97000000e+02 
96.037   9.69000000e+02 
96.001   9.83000000e+02 
95.965   1.03100000e+03 
95.929   1.04900000e+03 
95.893   1.10600000e+03 
95.857   1.09000000e+03 
95.821   1.17500000e+03 
95.785   1.22100000e+03 
95.749   1.21400000e+03 
95.713   1.24500000e+03 
95.677   1.26400000e+03 
95.641   1.29700000e+03 
95.605   1.33700000e+03 
95.570   1.39700000e+03 
95.534   1.28100000e+03 
95.498   1.40500000e+03 
95.462   1.39400000e+03 
95.426   1.42100000e+03 
95.390   1.37200000e+03 
95.354   1.41500000e+03 
95.318   1.35300000e+03 
95.282   1.40000000e+03 
95.246   1.29400000e+03 
95.210   1.25800000e+03 
95.174   1.23400000e+03 
95.138   1.23200000e+03 
95.102   1.13300000e+03 
95.066   1.06700000e+03 
95.030   9.60000000e+02 
94.995   9.29000000e+02 
94.959   8.58000000e+02 
94.923   8.02000000e+02 
94.887   7.34000000e+02 
94.851   6.83000000e+02 
94.815   6.21000000e+02 
94.779   5.89000000e+02 
94.743   5.13000000e+02 
94.707   5.07000000e+02 
94.671   4.43000000e+02 
94.635   4.60000000e+02 
94.599   4.43000000e+02 
94.563   3.96000000e+02 
94.527   3.63000000e+02 
94.491   3.52000000e+02 
94.455   3.73000000e+02 
94.420   3.55000000e+02 
94.384   3.22000000e+02 
94.348   2.90000000e+02 
94.312   2.98000000e+02 
94.276   3.28000000e+02 
94.240   2.93000000e+02 
94.204   3.24000000e+02 
94.168   3.28000000e+02 
94.132   2.85000000e+02 
94.096   2.58000000e+02 
94.060   3.05000000e+02 
94.024   3.01000000e+02 
93.988   2.76000000e+02 
93.952   2.71000000e+02 
93.916   2.75000000e+02 
93.880   2.89000000e+02 
93.845   2.80000000e+02 
93.809   3.00000000e+02 
93.773   3.14000000e+02 
93.737   3.02000000e+02 
93.701   3.25000000e+02 
93.665   2.83000000e+02 
93.629   3.30000000e+02 
93.593   3.13000000e+02 
93.557   3.28000000e+02 
93.521   2.97000000e+02 
93.485   3.48000000e+02 
93.449   3.47000000e+02 
93.413   3.68000000e+02 
93.377   3.40000000e+02 
93.341   3.71000000e+02 
93.305   3.82000000e+02 
93.270   3.77000000e+02 
93.234   4.24000000e+02 
93.198   4.39000000e+02 
93.162   4.38000000e+02 
93.126   4.52000000e+02 
93.090   4.74000000e+02 
93.054   5.09000000e+02 
93.018   5.31000000e+02 
92.982   5.36000000e+02 
92.946   6.20000000e+02 
92.910   5.67000000e+02 
92.874   6.36000000e+02 
92.838   5.99000000e+02 
92.802   6.68000000e+02 
92.766   7.01000000e+02 
92.730   6.91000000e+02 
92.695   7.67000000e+02 
92.659   7.67000000e+02 
92.623   8.15000000e+02 
92.587   9.00000000e+02 
92.551   8.39000000e+02 
92.515   8.80000000e+02 
92.479   9.85000000e+02 
92.443   9.75000000e+02 
92.407   1.10100000e+03 
92.371   1.07600000e+03 
92.335   1.14600000e+03 
92.299   1.14100000e+03 
92.263   1.19100000e+03 
92.227   1.26300000e+03 
92.191   1.26700000e+03 
92.155   1.37700000e+03 
92.120   1.39800000e+03 
92.084   1.50700000e+03 
92.048   1.42800000e+03 
92.012   1.52000000e+03 
91.976   1.64100000e+03 
91.940   1.55600000e+03 
91.904   1.62300000e+03 
91.868   1.70200000e+03 
91.832   1.66300000e+03 
91.796   1.71300000e+03 
91.760   1.74700000e+03 
91.724   1.70500000e+03 
91.688   1.75600000e+03 
91.652   1.70300000e+03 
91.616   1.64500000e+03 
91.580   1.54400000e+03 
91.545   1.45600000e+03 
91.509   1.47900000e+03 
91.473   1.35200000e+03 
91.437   1.25500000e+03 
91.401   1.19700000e+03 
91.365   1.14000000e+03 
91.329   1.00800000e+03 
91.293   9.38000000e+02 
91.257   8.40000000e+02 
91.221   7.97000000e+02 
91.185   7.24000000e+02 
91.149   6.48000000e+02 
91.113   5.84000000e+02 
91.077   5.13000000e+02 
91.041   4.55000000e+02 
91.005   4.37000000e+02 
90.970   3.83000000e+02 
90.934   3.32000000e+02 
90.898   3.47000000e+02 
90.862   2.95000000e+02 
90.826   2.94000000e+02 
90.790   2.58000000e+02 
90.754   2.61000000e+02 
90.718   2.60000000e+02 
90.682   2.43000000e+02 
90.646   2.36000000e+02 
90.610   2.00000000e+02 
90.574   2.14000000e+02 
90.538   1.93000000e+02 
90.502   1.75000000e+02 
90.466   1.92000000e+02 
90.430   1.91000000e+02 
90.395   1.95000000e+02 
90.359   1.76000000e+02 
90.323   1.90000000e+02 
90.287   1.57000000e+02 
90.251   1.47000000e+02 
90.215   1.57000000e+02 
90.179   1.60000000e+02 
90.143   1.35000000e+02 
90.107   1.28000000e+02 
90.071   1.23000000e+02 
90.035   1.48000000e+02 
89.999   1.36000000e+02 
89.963   1.31000000e+02 
89.927   1.53000000e+02 
89.891   1.37000000e+02 
89.855   1.38000000e+02 
89.820   1.45000000e+02 
89.784   1.52000000e+02 
89.748   1.01000000e+02 
89.712   1.12000000e+02 
89.676   1.24000000e+02 
89.640   1.29000000e+02 
89.604   1.09000000e+02 
89.568   1.31000000e+02 
89.532   1.10000000e+02 
89.496   9.50000000e+01 
89.460   1.05000000e+02 
89.424   1.01000000e+02 
89.388   1.15000000e+02 
89.352   1.12000000e+02 
89.316   1.08000000e+02 
89.280   1.06000000e+02 
89.245   1.26000000e+02 
89.209   9.00000000e+01 
89.173   1.19000000e+02 
89.137   1.25000000e+02 
89.101   1.18000000e+02 
89.065   1.01000000e+02 
89.029   1.12000000e+02 
88.993   1.26000000e+02 
88.957   1.03000000e+02 
88.921   1.13000000e+02 
88.885   9.70000000e+01 
88.849   1.07000000e+02 
88.813   1.00000000e+02 
88.777   1.08000000e+02 
88.741   1.07000000e+02 
88.705   1.01000000e+02 
88.670   1.02000000e+02 
88.634   1.22000000e+02 
88.598   1.05000000e+02 
88.562   1.08000000e+02 
88.526   8.30000000e+01 
88.490   1.16000000e+02 
88.454   1.02000000e+02 
88.418   9.80000000e+01 
88.382   1.11000000e+02 
88.346   1.05000000e+02 
88.310   1.13000000e+02 
88.274   1.09000000e+02 
88.238   1.13000000e+02 
88.202   9.90000000e+01 
88.166   1.07000000e+02 
88.130   8.70000000e+01 
88.095   8.60000000e+01 
88.059   9.80000000e+01 
88.023   9.80000000e+01 

