EXPERIMENT FILE
Version = 2

[ Experiment Parameters ]
Experiment Description= <none> 
Number_of_Regions_in_Experiment= 1 

Original_File_name= C:\alexesca\data\10242012_Au _4f_56nuetral-36_Mono195.xps 
Instrument= HP ESCA West
Date= 10-24-2012
Time=  14:29:50

[ Layer Parameters ]
Layer_Type= XPS

[ Region 1 Parameters ]
Region_Description = Au 4f Dithered Scan                
BEcenter(eV) = 93.000000
BEwidth(eV) = 10.000000
BEstep(eV) = 0.035937
Dwell_Time(sec) = 1.000000
N_o_scans = 1  
N_o_Channels = 278  
Scan_mode = 0  (DITHERED)

[ L= 1 R= 1 ]
BEcenter= 93.000  
BEwidth= -9.955  
Excitation= 1486.600
Time_p_channel= 256.000 
Size= 278
97.977   5.60000000e+01 
97.941   5.60000000e+01 
97.905   5.30000000e+01 
97.870   4.60000000e+01 
97.834   5.80000000e+01 
97.798   5.00000000e+01 
97.762   5.40000000e+01 
97.726   6.40000000e+01 
97.690   6.90000000e+01 
97.654   6.10000000e+01 
97.618   5.90000000e+01 
97.582   5.20000000e+01 
97.546   5.90000000e+01 
97.510   6.30000000e+01 
97.474   5.80000000e+01 
97.438   5.30000000e+01 
97.402   4.00000000e+01 
97.366   5.00000000e+01 
97.330   6.20000000e+01 
97.295   6.00000000e+01 
97.259   4.50000000e+01 
97.223   6.30000000e+01 
97.187   7.50000000e+01 
97.151   5.80000000e+01 
97.115   5.60000000e+01 
97.079   5.30000000e+01 
97.043   5.50000000e+01 
97.007   5.20000000e+01 
96.971   6.10000000e+01 
96.935   6.30000000e+01 
96.899   5.50000000e+01 
96.863   5.00000000e+01 
96.827   5.10000000e+01 
96.791   5.00000000e+01 
96.755   6.70000000e+01 
96.720   5.90000000e+01 
96.684   5.50000000e+01 
96.648   6.10000000e+01 
96.612   7.20000000e+01 
96.576   6.20000000e+01 
96.540   6.50000000e+01 
96.504   5.30000000e+01 
96.468   6.00000000e+01 
96.432   6.90000000e+01 
96.396   5.90000000e+01 
96.360   6.50000000e+01 
96.324   6.40000000e+01 
96.288   5.70000000e+01 
96.252   8.30000000e+01 
96.216   7.50000000e+01 
96.180   7.00000000e+01 
96.145   6.80000000e+01 
96.109   7.30000000e+01 
96.073   7.00000000e+01 
96.037   7.30000000e+01 
96.001   7.50000000e+01 
95.965   8.30000000e+01 
95.929   8.50000000e+01 
95.893   7.60000000e+01 
95.857   1.13000000e+02 
95.821   1.04000000e+02 
95.785   8.30000000e+01 
95.749   1.05000000e+02 
95.713   8.60000000e+01 
95.677   1.20000000e+02 
95.641   1.19000000e+02 
95.605   1.00000000e+02 
95.570   1.21000000e+02 
95.534   1.38000000e+02 
95.498   1.30000000e+02 
95.462   1.36000000e+02 
95.426   1.45000000e+02 
95.390   1.41000000e+02 
95.354   1.66000000e+02 
95.318   1.84000000e+02 
95.282   1.86000000e+02 
95.246   1.97000000e+02 
95.210   1.96000000e+02 
95.174   2.08000000e+02 
95.138   2.49000000e+02 
95.102   2.46000000e+02 
95.066   2.43000000e+02 
95.030   2.47000000e+02 
94.995   2.72000000e+02 
94.959   2.58000000e+02 
94.923   2.97000000e+02 
94.887   2.91000000e+02 
94.851   2.86000000e+02 
94.815   2.97000000e+02 
94.779   2.98000000e+02 
94.743   3.00000000e+02 
94.707   2.65000000e+02 
94.671   2.92000000e+02 
94.635   2.94000000e+02 
94.599   2.32000000e+02 
94.563   2.40000000e+02 
94.527   2.19000000e+02 
94.491   2.30000000e+02 
94.455   1.86000000e+02 
94.420   1.83000000e+02 
94.384   1.58000000e+02 
94.348   1.47000000e+02 
94.312   1.26000000e+02 
94.276   1.24000000e+02 
94.240   1.27000000e+02 
94.204   1.07000000e+02 
94.168   1.10000000e+02 
94.132   8.80000000e+01 
94.096   7.50000000e+01 
94.060   9.20000000e+01 
94.024   9.90000000e+01 
93.988   7.40000000e+01 
93.952   7.50000000e+01 
93.916   7.40000000e+01 
93.880   7.20000000e+01 
93.845   7.10000000e+01 
93.809   6.60000000e+01 
93.773   7.00000000e+01 
93.737   7.90000000e+01 
93.701   6.20000000e+01 
93.665   6.70000000e+01 
93.629   5.90000000e+01 
93.593   5.60000000e+01 
93.557   4.80000000e+01 
93.521   5.90000000e+01 
93.485   5.10000000e+01 
93.449   5.90000000e+01 
93.413   5.60000000e+01 
93.377   5.40000000e+01 
93.341   6.60000000e+01 
93.305   4.30000000e+01 
93.270   6.00000000e+01 
93.234   5.90000000e+01 
93.198   5.70000000e+01 
93.162   5.40000000e+01 
93.126   6.10000000e+01 
93.090   5.40000000e+01 
93.054   5.90000000e+01 
93.018   4.80000000e+01 
92.982   6.60000000e+01 
92.946   5.10000000e+01 
92.910   5.00000000e+01 
92.874   4.20000000e+01 
92.838   4.90000000e+01 
92.802   4.70000000e+01 
92.766   6.30000000e+01 
92.730   6.10000000e+01 
92.695   6.20000000e+01 
92.659   5.70000000e+01 
92.623   5.20000000e+01 
92.587   7.40000000e+01 
92.551   6.20000000e+01 
92.515   6.20000000e+01 
92.479   6.40000000e+01 
92.443   6.10000000e+01 
92.407   7.50000000e+01 
92.371   7.60000000e+01 
92.335   5.80000000e+01 
92.299   7.30000000e+01 
92.263   8.20000000e+01 
92.227   9.00000000e+01 
92.191   8.30000000e+01 
92.155   9.50000000e+01 
92.120   8.40000000e+01 
92.084   1.05000000e+02 
92.048   1.15000000e+02 
92.012   8.60000000e+01 
91.976   1.12000000e+02 
91.940   1.27000000e+02 
91.904   1.32000000e+02 
91.868   1.52000000e+02 
91.832   1.49000000e+02 
91.796   1.30000000e+02 
91.760   1.82000000e+02 
91.724   1.80000000e+02 
91.688   1.64000000e+02 
91.652   2.04000000e+02 
91.616   2.15000000e+02 
91.580   2.23000000e+02 
91.545   2.15000000e+02 
91.509   2.33000000e+02 
91.473   2.76000000e+02 
91.437   2.90000000e+02 
91.401   2.98000000e+02 
91.365   2.83000000e+02 
91.329   3.11000000e+02 
91.293   3.07000000e+02 
91.257   3.47000000e+02 
91.221   3.60000000e+02 
91.185   3.55000000e+02 
91.149   3.57000000e+02 
91.113   3.48000000e+02 
91.077   3.61000000e+02 
91.041   3.32000000e+02 
91.005   3.31000000e+02 
90.970   3.41000000e+02 
90.934   2.61000000e+02 
90.898   2.95000000e+02 
90.862   2.39000000e+02 
90.826   2.53000000e+02 
90.790   2.18000000e+02 
90.754   2.12000000e+02 
90.718   1.56000000e+02 
90.682   1.59000000e+02 
90.646   1.22000000e+02 
90.610   1.25000000e+02 
90.574   1.06000000e+02 
90.538   1.05000000e+02 
90.502   1.07000000e+02 
90.466   7.40000000e+01 
90.430   9.30000000e+01 
90.395   8.00000000e+01 
90.359   6.80000000e+01 
90.323   4.50000000e+01 
90.287   4.60000000e+01 
90.251   6.10000000e+01 
90.215   5.10000000e+01 
90.179   5.20000000e+01 
90.143   4.80000000e+01 
90.107   3.20000000e+01 
90.071   4.50000000e+01 
90.035   5.30000000e+01 
89.999   3.90000000e+01 
89.963   3.80000000e+01 
89.927   2.70000000e+01 
89.891   3.60000000e+01 
89.855   4.10000000e+01 
89.820   3.90000000e+01 
89.784   4.20000000e+01 
89.748   2.80000000e+01 
89.712   3.00000000e+01 
89.676   4.10000000e+01 
89.640   3.80000000e+01 
89.604   3.70000000e+01 
89.568   3.50000000e+01 
89.532   2.90000000e+01 
89.496   3.40000000e+01 
89.460   3.10000000e+01 
89.424   3.00000000e+01 
89.388   3.10000000e+01 
89.352   2.60000000e+01 
89.316   2.90000000e+01 
89.280   3.30000000e+01 
89.245   2.80000000e+01 
89.209   2.10000000e+01 
89.173   3.10000000e+01 
89.137   2.80000000e+01 
89.101   2.70000000e+01 
89.065   2.40000000e+01 
89.029   2.90000000e+01 
88.993   3.10000000e+01 
88.957   2.80000000e+01 
88.921   3.60000000e+01 
88.885   3.10000000e+01 
88.849   3.30000000e+01 
88.813   2.10000000e+01 
88.777   3.50000000e+01 
88.741   3.00000000e+01 
88.705   2.70000000e+01 
88.670   2.60000000e+01 
88.634   2.30000000e+01 
88.598   3.80000000e+01 
88.562   3.10000000e+01 
88.526   3.70000000e+01 
88.490   3.30000000e+01 
88.454   3.20000000e+01 
88.418   3.40000000e+01 
88.382   3.00000000e+01 
88.346   3.40000000e+01 
88.310   2.90000000e+01 
88.274   3.00000000e+01 
88.238   1.90000000e+01 
88.202   3.70000000e+01 
88.166   2.90000000e+01 
88.130   2.90000000e+01 
88.095   2.80000000e+01 
88.059   2.50000000e+01 
88.023   2.70000000e+01 

