EXPERIMENT FILE
Version = 2

[ Experiment Parameters ]
Experiment Description= <none> 
Number_of_Regions_in_Experiment= 1 

Original_File_name= C:\alexesca\data\10242012_Au _4f_56nuetral-39_Mono222.xps 
Instrument= HP ESCA West
Date= 10-24-2012
Time=  16:43:20

[ Layer Parameters ]
Layer_Type= XPS

[ Region 1 Parameters ]
Region_Description = Au 4f Dithered Scan                
BEcenter(eV) = 93.000000
BEwidth(eV) = 10.000000
BEstep(eV) = 0.035937
Dwell_Time(sec) = 1.000000
N_o_scans = 1  
N_o_Channels = 278  
Scan_mode = 0  (DITHERED)

[ L= 1 R= 1 ]
BEcenter= 93.000  
BEwidth= -9.955  
Excitation= 1486.600
Time_p_channel= 256.000 
Size= 278
97.977   5.10000000e+01 
97.941   6.10000000e+01 
97.905   4.80000000e+01 
97.870   5.40000000e+01 
97.834   5.20000000e+01 
97.798   5.30000000e+01 
97.762   6.70000000e+01 
97.726   4.50000000e+01 
97.690   5.50000000e+01 
97.654   6.20000000e+01 
97.618   5.60000000e+01 
97.582   5.60000000e+01 
97.546   5.00000000e+01 
97.510   6.90000000e+01 
97.474   6.90000000e+01 
97.438   6.20000000e+01 
97.402   5.60000000e+01 
97.366   6.00000000e+01 
97.330   5.40000000e+01 
97.295   5.40000000e+01 
97.259   5.70000000e+01 
97.223   5.00000000e+01 
97.187   6.50000000e+01 
97.151   7.40000000e+01 
97.115   5.40000000e+01 
97.079   6.80000000e+01 
97.043   6.80000000e+01 
97.007   6.00000000e+01 
96.971   5.20000000e+01 
96.935   7.50000000e+01 
96.899   6.70000000e+01 
96.863   5.80000000e+01 
96.827   6.80000000e+01 
96.791   5.20000000e+01 
96.755   7.10000000e+01 
96.720   7.60000000e+01 
96.684   7.40000000e+01 
96.648   7.60000000e+01 
96.612   8.20000000e+01 
96.576   7.20000000e+01 
96.540   8.40000000e+01 
96.504   9.10000000e+01 
96.468   8.50000000e+01 
96.432   8.40000000e+01 
96.396   1.07000000e+02 
96.360   1.02000000e+02 
96.324   1.10000000e+02 
96.288   1.04000000e+02 
96.252   1.10000000e+02 
96.216   1.23000000e+02 
96.180   1.25000000e+02 
96.145   1.34000000e+02 
96.109   1.57000000e+02 
96.073   1.56000000e+02 
96.037   1.61000000e+02 
96.001   1.56000000e+02 
95.965   1.63000000e+02 
95.929   1.83000000e+02 
95.893   2.05000000e+02 
95.857   1.75000000e+02 
95.821   1.70000000e+02 
95.785   1.88000000e+02 
95.749   2.26000000e+02 
95.713   2.22000000e+02 
95.677   2.47000000e+02 
95.641   2.41000000e+02 
95.605   2.88000000e+02 
95.570   2.78000000e+02 
95.534   2.66000000e+02 
95.498   2.81000000e+02 
95.462   2.59000000e+02 
95.426   2.91000000e+02 
95.390   2.63000000e+02 
95.354   2.78000000e+02 
95.318   2.49000000e+02 
95.282   2.78000000e+02 
95.246   2.52000000e+02 
95.210   2.54000000e+02 
95.174   2.41000000e+02 
95.138   2.10000000e+02 
95.102   1.90000000e+02 
95.066   1.73000000e+02 
95.030   1.75000000e+02 
94.995   1.52000000e+02 
94.959   1.66000000e+02 
94.923   1.38000000e+02 
94.887   1.31000000e+02 
94.851   9.20000000e+01 
94.815   1.09000000e+02 
94.779   1.08000000e+02 
94.743   1.02000000e+02 
94.707   8.80000000e+01 
94.671   9.90000000e+01 
94.635   8.30000000e+01 
94.599   6.90000000e+01 
94.563   7.20000000e+01 
94.527   7.90000000e+01 
94.491   7.10000000e+01 
94.455   5.80000000e+01 
94.420   6.30000000e+01 
94.384   6.60000000e+01 
94.348   6.20000000e+01 
94.312   6.20000000e+01 
94.276   5.00000000e+01 
94.240   4.90000000e+01 
94.204   6.10000000e+01 
94.168   6.00000000e+01 
94.132   6.50000000e+01 
94.096   6.30000000e+01 
94.060   6.20000000e+01 
94.024   5.00000000e+01 
93.988   6.40000000e+01 
93.952   5.90000000e+01 
93.916   6.00000000e+01 
93.880   5.50000000e+01 
93.845   5.40000000e+01 
93.809   5.20000000e+01 
93.773   6.10000000e+01 
93.737   4.60000000e+01 
93.701   5.60000000e+01 
93.665   4.20000000e+01 
93.629   6.00000000e+01 
93.593   5.40000000e+01 
93.557   4.70000000e+01 
93.521   5.40000000e+01 
93.485   5.10000000e+01 
93.449   5.20000000e+01 
93.413   5.20000000e+01 
93.377   6.00000000e+01 
93.341   5.50000000e+01 
93.305   6.20000000e+01 
93.270   4.80000000e+01 
93.234   6.00000000e+01 
93.198   6.80000000e+01 
93.162   5.60000000e+01 
93.126   7.40000000e+01 
93.090   6.60000000e+01 
93.054   6.70000000e+01 
93.018   9.00000000e+01 
92.982   7.00000000e+01 
92.946   7.00000000e+01 
92.910   8.40000000e+01 
92.874   7.10000000e+01 
92.838   9.70000000e+01 
92.802   9.50000000e+01 
92.766   1.00000000e+02 
92.730   8.80000000e+01 
92.695   1.03000000e+02 
92.659   1.11000000e+02 
92.623   1.06000000e+02 
92.587   1.20000000e+02 
92.551   1.33000000e+02 
92.515   1.17000000e+02 
92.479   1.52000000e+02 
92.443   1.44000000e+02 
92.407   1.59000000e+02 
92.371   1.66000000e+02 
92.335   1.71000000e+02 
92.299   1.84000000e+02 
92.263   2.01000000e+02 
92.227   2.07000000e+02 
92.191   2.06000000e+02 
92.155   2.25000000e+02 
92.120   2.65000000e+02 
92.084   2.35000000e+02 
92.048   2.65000000e+02 
92.012   2.77000000e+02 
91.976   3.17000000e+02 
91.940   3.04000000e+02 
91.904   3.39000000e+02 
91.868   3.39000000e+02 
91.832   3.61000000e+02 
91.796   3.78000000e+02 
91.760   3.32000000e+02 
91.724   3.48000000e+02 
91.688   3.64000000e+02 
91.652   3.31000000e+02 
91.616   2.80000000e+02 
91.580   3.19000000e+02 
91.545   2.85000000e+02 
91.509   2.90000000e+02 
91.473   2.57000000e+02 
91.437   2.51000000e+02 
91.401   2.18000000e+02 
91.365   2.00000000e+02 
91.329   1.71000000e+02 
91.293   1.76000000e+02 
91.257   1.55000000e+02 
91.221   1.56000000e+02 
91.185   1.10000000e+02 
91.149   7.60000000e+01 
91.113   1.05000000e+02 
91.077   9.40000000e+01 
91.041   8.80000000e+01 
91.005   7.70000000e+01 
90.970   6.80000000e+01 
90.934   8.30000000e+01 
90.898   7.00000000e+01 
90.862   5.30000000e+01 
90.826   6.50000000e+01 
90.790   3.40000000e+01 
90.754   4.30000000e+01 
90.718   5.00000000e+01 
90.682   4.20000000e+01 
90.646   5.10000000e+01 
90.610   4.60000000e+01 
90.574   3.80000000e+01 
90.538   3.90000000e+01 
90.502   4.70000000e+01 
90.466   4.20000000e+01 
90.430   4.50000000e+01 
90.395   3.50000000e+01 
90.359   3.90000000e+01 
90.323   3.80000000e+01 
90.287   2.80000000e+01 
90.251   4.50000000e+01 
90.215   3.10000000e+01 
90.179   3.50000000e+01 
90.143   4.40000000e+01 
90.107   2.60000000e+01 
90.071   3.20000000e+01 
90.035   2.20000000e+01 
89.999   3.40000000e+01 
89.963   3.90000000e+01 
89.927   3.80000000e+01 
89.891   3.90000000e+01 
89.855   3.10000000e+01 
89.820   3.40000000e+01 
89.784   2.80000000e+01 
89.748   2.90000000e+01 
89.712   2.30000000e+01 
89.676   3.50000000e+01 
89.640   2.50000000e+01 
89.604   2.70000000e+01 
89.568   2.50000000e+01 
89.532   1.80000000e+01 
89.496   2.70000000e+01 
89.460   3.30000000e+01 
89.424   2.60000000e+01 
89.388   3.20000000e+01 
89.352   2.10000000e+01 
89.316   2.60000000e+01 
89.280   2.70000000e+01 
89.245   2.50000000e+01 
89.209   2.40000000e+01 
89.173   2.60000000e+01 
89.137   2.90000000e+01 
89.101   2.80000000e+01 
89.065   2.50000000e+01 
89.029   3.00000000e+01 
88.993   2.30000000e+01 
88.957   2.80000000e+01 
88.921   2.70000000e+01 
88.885   2.70000000e+01 
88.849   3.60000000e+01 
88.813   2.50000000e+01 
88.777   2.80000000e+01 
88.741   2.40000000e+01 
88.705   3.00000000e+01 
88.670   2.60000000e+01 
88.634   2.40000000e+01 
88.598   2.80000000e+01 
88.562   2.80000000e+01 
88.526   2.80000000e+01 
88.490   2.40000000e+01 
88.454   2.40000000e+01 
88.418   2.90000000e+01 
88.382   3.30000000e+01 
88.346   3.10000000e+01 
88.310   1.60000000e+01 
88.274   3.80000000e+01 
88.238   2.60000000e+01 
88.202   2.60000000e+01 
88.166   2.50000000e+01 
88.130   1.80000000e+01 
88.095   2.60000000e+01 
88.059   2.10000000e+01 
88.023   2.60000000e+01 

