EXPERIMENT FILE
Version = 2

[ Experiment Parameters ]
Experiment Description= <none> 
Number_of_Regions_in_Experiment= 1 

Original_File_name= C:\alexesca\data\10242012_Au _4f_56nuetral-36_Mono220.xps 
Instrument= HP ESCA West
Date= 10-24-2012
Time=  15:14:22

[ Layer Parameters ]
Layer_Type= XPS

[ Region 1 Parameters ]
Region_Description = Au 4f Dithered Scan                
BEcenter(eV) = 93.000000
BEwidth(eV) = 10.000000
BEstep(eV) = 0.035937
Dwell_Time(sec) = 1.000000
N_o_scans = 1  
N_o_Channels = 278  
Scan_mode = 0  (DITHERED)

[ L= 1 R= 1 ]
BEcenter= 93.000  
BEwidth= -9.955  
Excitation= 1486.600
Time_p_channel= 256.000 
Size= 278
97.977   5.10000000e+01 
97.941   5.50000000e+01 
97.905   5.00000000e+01 
97.870   6.60000000e+01 
97.834   6.10000000e+01 
97.798   5.30000000e+01 
97.762   6.10000000e+01 
97.726   5.60000000e+01 
97.690   5.20000000e+01 
97.654   5.10000000e+01 
97.618   4.80000000e+01 
97.582   6.50000000e+01 
97.546   6.20000000e+01 
97.510   5.30000000e+01 
97.474   6.40000000e+01 
97.438   5.10000000e+01 
97.402   6.00000000e+01 
97.366   6.40000000e+01 
97.330   7.60000000e+01 
97.295   5.70000000e+01 
97.259   5.80000000e+01 
97.223   4.90000000e+01 
97.187   6.30000000e+01 
97.151   6.00000000e+01 
97.115   5.40000000e+01 
97.079   5.80000000e+01 
97.043   5.90000000e+01 
97.007   6.30000000e+01 
96.971   5.60000000e+01 
96.935   5.80000000e+01 
96.899   7.80000000e+01 
96.863   5.80000000e+01 
96.827   7.30000000e+01 
96.791   6.00000000e+01 
96.755   7.10000000e+01 
96.720   7.20000000e+01 
96.684   5.10000000e+01 
96.648   6.70000000e+01 
96.612   6.20000000e+01 
96.576   7.10000000e+01 
96.540   7.80000000e+01 
96.504   6.70000000e+01 
96.468   7.40000000e+01 
96.432   9.10000000e+01 
96.396   7.10000000e+01 
96.360   7.70000000e+01 
96.324   7.90000000e+01 
96.288   7.90000000e+01 
96.252   8.00000000e+01 
96.216   8.50000000e+01 
96.180   1.04000000e+02 
96.145   8.50000000e+01 
96.109   8.90000000e+01 
96.073   1.04000000e+02 
96.037   1.05000000e+02 
96.001   1.00000000e+02 
95.965   1.19000000e+02 
95.929   1.03000000e+02 
95.893   1.17000000e+02 
95.857   1.34000000e+02 
95.821   1.21000000e+02 
95.785   1.33000000e+02 
95.749   1.45000000e+02 
95.713   1.37000000e+02 
95.677   1.68000000e+02 
95.641   1.68000000e+02 
95.605   1.92000000e+02 
95.570   1.91000000e+02 
95.534   2.28000000e+02 
95.498   2.29000000e+02 
95.462   2.20000000e+02 
95.426   2.04000000e+02 
95.390   2.38000000e+02 
95.354   2.58000000e+02 
95.318   2.68000000e+02 
95.282   2.86000000e+02 
95.246   2.72000000e+02 
95.210   2.78000000e+02 
95.174   2.75000000e+02 
95.138   2.98000000e+02 
95.102   2.72000000e+02 
95.066   2.80000000e+02 
95.030   3.00000000e+02 
94.995   2.77000000e+02 
94.959   2.92000000e+02 
94.923   2.33000000e+02 
94.887   2.23000000e+02 
94.851   2.16000000e+02 
94.815   2.24000000e+02 
94.779   2.04000000e+02 
94.743   1.79000000e+02 
94.707   1.76000000e+02 
94.671   1.57000000e+02 
94.635   1.56000000e+02 
94.599   1.30000000e+02 
94.563   1.15000000e+02 
94.527   1.12000000e+02 
94.491   1.06000000e+02 
94.455   8.70000000e+01 
94.420   9.60000000e+01 
94.384   8.90000000e+01 
94.348   8.10000000e+01 
94.312   7.50000000e+01 
94.276   7.40000000e+01 
94.240   7.50000000e+01 
94.204   7.60000000e+01 
94.168   7.70000000e+01 
94.132   5.80000000e+01 
94.096   6.00000000e+01 
94.060   6.70000000e+01 
94.024   4.80000000e+01 
93.988   6.30000000e+01 
93.952   6.50000000e+01 
93.916   5.00000000e+01 
93.880   5.10000000e+01 
93.845   5.90000000e+01 
93.809   6.80000000e+01 
93.773   4.90000000e+01 
93.737   5.20000000e+01 
93.701   5.00000000e+01 
93.665   7.40000000e+01 
93.629   4.70000000e+01 
93.593   5.60000000e+01 
93.557   5.30000000e+01 
93.521   6.50000000e+01 
93.485   5.00000000e+01 
93.449   5.80000000e+01 
93.413   5.40000000e+01 
93.377   5.50000000e+01 
93.341   5.90000000e+01 
93.305   4.30000000e+01 
93.270   5.40000000e+01 
93.234   5.50000000e+01 
93.198   5.80000000e+01 
93.162   5.10000000e+01 
93.126   5.80000000e+01 
93.090   6.40000000e+01 
93.054   7.30000000e+01 
93.018   6.40000000e+01 
92.982   6.50000000e+01 
92.946   6.60000000e+01 
92.910   6.60000000e+01 
92.874   5.70000000e+01 
92.838   7.70000000e+01 
92.802   7.10000000e+01 
92.766   6.00000000e+01 
92.730   6.30000000e+01 
92.695   7.50000000e+01 
92.659   7.10000000e+01 
92.623   8.20000000e+01 
92.587   8.00000000e+01 
92.551   9.00000000e+01 
92.515   8.50000000e+01 
92.479   8.60000000e+01 
92.443   1.07000000e+02 
92.407   9.60000000e+01 
92.371   1.11000000e+02 
92.335   1.04000000e+02 
92.299   1.28000000e+02 
92.263   1.32000000e+02 
92.227   1.37000000e+02 
92.191   1.40000000e+02 
92.155   1.47000000e+02 
92.120   1.53000000e+02 
92.084   1.87000000e+02 
92.048   1.58000000e+02 
92.012   1.82000000e+02 
91.976   1.90000000e+02 
91.940   2.26000000e+02 
91.904   2.16000000e+02 
91.868   2.72000000e+02 
91.832   2.26000000e+02 
91.796   2.94000000e+02 
91.760   2.88000000e+02 
91.724   2.77000000e+02 
91.688   2.83000000e+02 
91.652   3.24000000e+02 
91.616   3.43000000e+02 
91.580   3.33000000e+02 
91.545   3.76000000e+02 
91.509   3.38000000e+02 
91.473   3.62000000e+02 
91.437   3.50000000e+02 
91.401   3.25000000e+02 
91.365   3.68000000e+02 
91.329   3.29000000e+02 
91.293   3.05000000e+02 
91.257   2.90000000e+02 
91.221   3.02000000e+02 
91.185   2.56000000e+02 
91.149   2.11000000e+02 
91.113   2.21000000e+02 
91.077   2.09000000e+02 
91.041   1.73000000e+02 
91.005   1.56000000e+02 
90.970   1.46000000e+02 
90.934   1.42000000e+02 
90.898   1.23000000e+02 
90.862   1.22000000e+02 
90.826   1.07000000e+02 
90.790   1.07000000e+02 
90.754   7.80000000e+01 
90.718   8.40000000e+01 
90.682   6.60000000e+01 
90.646   7.10000000e+01 
90.610   7.60000000e+01 
90.574   5.30000000e+01 
90.538   6.10000000e+01 
90.502   4.70000000e+01 
90.466   3.90000000e+01 
90.430   3.10000000e+01 
90.395   2.50000000e+01 
90.359   4.20000000e+01 
90.323   3.70000000e+01 
90.287   5.00000000e+01 
90.251   4.40000000e+01 
90.215   5.70000000e+01 
90.179   4.20000000e+01 
90.143   4.50000000e+01 
90.107   4.40000000e+01 
90.071   4.30000000e+01 
90.035   2.80000000e+01 
89.999   3.70000000e+01 
89.963   2.90000000e+01 
89.927   3.80000000e+01 
89.891   4.20000000e+01 
89.855   3.10000000e+01 
89.820   2.90000000e+01 
89.784   4.60000000e+01 
89.748   3.70000000e+01 
89.712   3.70000000e+01 
89.676   2.80000000e+01 
89.640   3.60000000e+01 
89.604   2.90000000e+01 
89.568   2.40000000e+01 
89.532   3.40000000e+01 
89.496   3.40000000e+01 
89.460   2.40000000e+01 
89.424   2.80000000e+01 
89.388   2.70000000e+01 
89.352   2.80000000e+01 
89.316   2.80000000e+01 
89.280   3.00000000e+01 
89.245   2.00000000e+01 
89.209   3.00000000e+01 
89.173   2.20000000e+01 
89.137   2.90000000e+01 
89.101   2.50000000e+01 
89.065   2.80000000e+01 
89.029   3.10000000e+01 
88.993   2.90000000e+01 
88.957   2.70000000e+01 
88.921   3.40000000e+01 
88.885   3.00000000e+01 
88.849   2.40000000e+01 
88.813   3.00000000e+01 
88.777   2.60000000e+01 
88.741   2.00000000e+01 
88.705   2.00000000e+01 
88.670   2.80000000e+01 
88.634   2.90000000e+01 
88.598   3.20000000e+01 
88.562   3.00000000e+01 
88.526   3.00000000e+01 
88.490   2.40000000e+01 
88.454   2.90000000e+01 
88.418   3.20000000e+01 
88.382   2.90000000e+01 
88.346   2.40000000e+01 
88.310   2.90000000e+01 
88.274   1.40000000e+01 
88.238   1.90000000e+01 
88.202   2.70000000e+01 
88.166   3.90000000e+01 
88.130   3.10000000e+01 
88.095   3.30000000e+01 
88.059   2.00000000e+01 
88.023   2.70000000e+01 

