EXPERIMENT FILE
Version = 2

[ Experiment Parameters ]
Experiment Description= <none> 
Number_of_Regions_in_Experiment= 1 

Original_File_name= C:\alexesca\data\10252012_Au _4f_56nuetral-26_Mono222.xps 
Instrument= HP ESCA West
Date= 10-25-2012
Time=  16:54:34

[ Layer Parameters ]
Layer_Type= XPS

[ Region 1 Parameters ]
Region_Description = Au 4f Dithered Scan                
BEcenter(eV) = 93.000000
BEwidth(eV) = 10.000000
BEstep(eV) = 0.035937
Dwell_Time(sec) = 1.000000
N_o_scans = 1  
N_o_Channels = 278  
Scan_mode = 0  (DITHERED)

[ L= 1 R= 1 ]
BEcenter= 93.000  
BEwidth= -9.955  
Excitation= 1486.600
Time_p_channel= 256.000 
Size= 278
97.977   1.19000000e+02 
97.941   1.31000000e+02 
97.905   1.15000000e+02 
97.870   1.25000000e+02 
97.834   1.15000000e+02 
97.798   1.18000000e+02 
97.762   1.38000000e+02 
97.726   1.13000000e+02 
97.690   1.18000000e+02 
97.654   1.18000000e+02 
97.618   1.35000000e+02 
97.582   1.26000000e+02 
97.546   1.24000000e+02 
97.510   1.17000000e+02 
97.474   1.37000000e+02 
97.438   1.17000000e+02 
97.402   1.27000000e+02 
97.366   1.61000000e+02 
97.330   1.32000000e+02 
97.295   1.11000000e+02 
97.259   1.31000000e+02 
97.223   1.27000000e+02 
97.187   1.22000000e+02 
97.151   1.43000000e+02 
97.115   1.26000000e+02 
97.079   1.32000000e+02 
97.043   1.51000000e+02 
97.007   1.53000000e+02 
96.971   1.41000000e+02 
96.935   1.33000000e+02 
96.899   1.61000000e+02 
96.863   1.47000000e+02 
96.827   1.62000000e+02 
96.791   1.64000000e+02 
96.755   1.34000000e+02 
96.720   1.74000000e+02 
96.684   1.67000000e+02 
96.648   1.64000000e+02 
96.612   1.65000000e+02 
96.576   1.63000000e+02 
96.540   2.05000000e+02 
96.504   1.76000000e+02 
96.468   1.87000000e+02 
96.432   1.77000000e+02 
96.396   1.93000000e+02 
96.360   2.11000000e+02 
96.324   2.02000000e+02 
96.288   2.22000000e+02 
96.252   2.43000000e+02 
96.216   2.33000000e+02 
96.180   2.42000000e+02 
96.145   2.74000000e+02 
96.109   2.69000000e+02 
96.073   3.10000000e+02 
96.037   2.68000000e+02 
96.001   3.10000000e+02 
95.965   2.92000000e+02 
95.929   3.22000000e+02 
95.893   3.47000000e+02 
95.857   3.70000000e+02 
95.821   4.02000000e+02 
95.785   3.73000000e+02 
95.749   4.32000000e+02 
95.713   4.67000000e+02 
95.677   4.52000000e+02 
95.641   4.96000000e+02 
95.605   4.59000000e+02 
95.570   5.15000000e+02 
95.534   5.10000000e+02 
95.498   5.94000000e+02 
95.462   5.64000000e+02 
95.426   6.03000000e+02 
95.390   6.68000000e+02 
95.354   6.43000000e+02 
95.318   6.28000000e+02 
95.282   6.66000000e+02 
95.246   6.56000000e+02 
95.210   7.05000000e+02 
95.174   6.90000000e+02 
95.138   7.35000000e+02 
95.102   6.54000000e+02 
95.066   5.96000000e+02 
95.030   6.92000000e+02 
94.995   5.65000000e+02 
94.959   5.55000000e+02 
94.923   5.32000000e+02 
94.887   5.06000000e+02 
94.851   4.55000000e+02 
94.815   4.50000000e+02 
94.779   3.99000000e+02 
94.743   3.74000000e+02 
94.707   3.57000000e+02 
94.671   3.21000000e+02 
94.635   3.09000000e+02 
94.599   2.50000000e+02 
94.563   2.26000000e+02 
94.527   2.06000000e+02 
94.491   2.06000000e+02 
94.455   2.07000000e+02 
94.420   1.58000000e+02 
94.384   1.91000000e+02 
94.348   1.84000000e+02 
94.312   1.44000000e+02 
94.276   1.53000000e+02 
94.240   1.40000000e+02 
94.204   1.50000000e+02 
94.168   1.48000000e+02 
94.132   1.40000000e+02 
94.096   1.37000000e+02 
94.060   1.30000000e+02 
94.024   1.40000000e+02 
93.988   1.33000000e+02 
93.952   1.43000000e+02 
93.916   1.19000000e+02 
93.880   1.33000000e+02 
93.845   1.20000000e+02 
93.809   1.33000000e+02 
93.773   1.38000000e+02 
93.737   1.25000000e+02 
93.701   1.42000000e+02 
93.665   1.17000000e+02 
93.629   1.18000000e+02 
93.593   1.47000000e+02 
93.557   1.11000000e+02 
93.521   1.28000000e+02 
93.485   1.25000000e+02 
93.449   1.38000000e+02 
93.413   1.42000000e+02 
93.377   9.60000000e+01 
93.341   1.46000000e+02 
93.305   1.26000000e+02 
93.270   1.20000000e+02 
93.234   1.38000000e+02 
93.198   1.40000000e+02 
93.162   1.52000000e+02 
93.126   1.35000000e+02 
93.090   1.27000000e+02 
93.054   1.49000000e+02 
93.018   1.58000000e+02 
92.982   1.56000000e+02 
92.946   1.61000000e+02 
92.910   1.63000000e+02 
92.874   1.55000000e+02 
92.838   2.04000000e+02 
92.802   1.83000000e+02 
92.766   1.87000000e+02 
92.730   2.27000000e+02 
92.695   2.24000000e+02 
92.659   2.28000000e+02 
92.623   2.65000000e+02 
92.587   2.06000000e+02 
92.551   2.40000000e+02 
92.515   2.89000000e+02 
92.479   2.83000000e+02 
92.443   3.11000000e+02 
92.407   3.17000000e+02 
92.371   3.09000000e+02 
92.335   3.55000000e+02 
92.299   3.55000000e+02 
92.263   3.47000000e+02 
92.227   4.05000000e+02 
92.191   4.01000000e+02 
92.155   4.16000000e+02 
92.120   4.37000000e+02 
92.084   4.48000000e+02 
92.048   4.73000000e+02 
92.012   5.60000000e+02 
91.976   5.43000000e+02 
91.940   5.51000000e+02 
91.904   6.13000000e+02 
91.868   6.26000000e+02 
91.832   7.05000000e+02 
91.796   6.93000000e+02 
91.760   6.73000000e+02 
91.724   7.26000000e+02 
91.688   7.96000000e+02 
91.652   7.95000000e+02 
91.616   8.00000000e+02 
91.580   7.90000000e+02 
91.545   7.75000000e+02 
91.509   7.63000000e+02 
91.473   7.84000000e+02 
91.437   7.70000000e+02 
91.401   7.82000000e+02 
91.365   7.81000000e+02 
91.329   7.11000000e+02 
91.293   6.41000000e+02 
91.257   6.32000000e+02 
91.221   5.60000000e+02 
91.185   4.92000000e+02 
91.149   4.82000000e+02 
91.113   3.94000000e+02 
91.077   3.74000000e+02 
91.041   3.80000000e+02 
91.005   2.94000000e+02 
90.970   2.69000000e+02 
90.934   2.55000000e+02 
90.898   2.30000000e+02 
90.862   2.01000000e+02 
90.826   1.86000000e+02 
90.790   1.86000000e+02 
90.754   1.45000000e+02 
90.718   1.33000000e+02 
90.682   1.35000000e+02 
90.646   1.18000000e+02 
90.610   1.28000000e+02 
90.574   1.18000000e+02 
90.538   1.20000000e+02 
90.502   1.06000000e+02 
90.466   9.10000000e+01 
90.430   1.16000000e+02 
90.395   8.00000000e+01 
90.359   8.40000000e+01 
90.323   9.20000000e+01 
90.287   8.20000000e+01 
90.251   1.01000000e+02 
90.215   9.30000000e+01 
90.179   7.10000000e+01 
90.143   8.40000000e+01 
90.107   8.20000000e+01 
90.071   5.50000000e+01 
90.035   9.60000000e+01 
89.999   7.90000000e+01 
89.963   7.40000000e+01 
89.927   6.60000000e+01 
89.891   6.80000000e+01 
89.855   7.50000000e+01 
89.820   6.30000000e+01 
89.784   7.40000000e+01 
89.748   6.60000000e+01 
89.712   6.20000000e+01 
89.676   8.10000000e+01 
89.640   6.20000000e+01 
89.604   6.00000000e+01 
89.568   6.80000000e+01 
89.532   7.00000000e+01 
89.496   6.00000000e+01 
89.460   6.50000000e+01 
89.424   6.60000000e+01 
89.388   4.60000000e+01 
89.352   5.80000000e+01 
89.316   5.50000000e+01 
89.280   5.90000000e+01 
89.245   7.30000000e+01 
89.209   6.20000000e+01 
89.173   6.40000000e+01 
89.137   6.20000000e+01 
89.101   6.30000000e+01 
89.065   5.50000000e+01 
89.029   5.60000000e+01 
88.993   5.10000000e+01 
88.957   5.30000000e+01 
88.921   4.60000000e+01 
88.885   4.30000000e+01 
88.849   5.10000000e+01 
88.813   5.60000000e+01 
88.777   5.50000000e+01 
88.741   7.50000000e+01 
88.705   6.60000000e+01 
88.670   3.80000000e+01 
88.634   5.80000000e+01 
88.598   6.40000000e+01 
88.562   5.10000000e+01 
88.526   5.80000000e+01 
88.490   5.10000000e+01 
88.454   5.40000000e+01 
88.418   6.80000000e+01 
88.382   4.80000000e+01 
88.346   6.30000000e+01 
88.310   6.10000000e+01 
88.274   5.80000000e+01 
88.238   5.20000000e+01 
88.202   5.00000000e+01 
88.166   5.50000000e+01 
88.130   4.70000000e+01 
88.095   4.30000000e+01 
88.059   7.10000000e+01 
88.023   5.50000000e+01 

