EXPERIMENT FILE
Version = 2

[ Experiment Parameters ]
Experiment Description= <none> 
Number_of_Regions_in_Experiment= 1 

Original_File_name= C:\alexesca\data\10252012_Au _4f_56nuetral-36_Mono225.xps 
Instrument= HP ESCA West
Date= 10-26-2012
Time=  16:21:44

[ Layer Parameters ]
Layer_Type= XPS

[ Region 1 Parameters ]
Region_Description = Au 4f Dithered Scan                
BEcenter(eV) = 93.000000
BEwidth(eV) = 10.000000
BEstep(eV) = 0.035937
Dwell_Time(sec) = 1.000000
N_o_scans = 1  
N_o_Channels = 278  
Scan_mode = 0  (DITHERED)

[ L= 1 R= 1 ]
BEcenter= 93.000  
BEwidth= -9.955  
Excitation= 1486.600
Time_p_channel= 256.000 
Size= 278
97.977   6.00000000e+01 
97.941   6.50000000e+01 
97.905   6.90000000e+01 
97.870   6.50000000e+01 
97.834   5.90000000e+01 
97.798   7.60000000e+01 
97.762   6.50000000e+01 
97.726   5.30000000e+01 
97.690   6.50000000e+01 
97.654   7.60000000e+01 
97.618   7.60000000e+01 
97.582   6.50000000e+01 
97.546   5.60000000e+01 
97.510   7.30000000e+01 
97.474   9.10000000e+01 
97.438   6.80000000e+01 
97.402   7.10000000e+01 
97.366   7.20000000e+01 
97.330   6.30000000e+01 
97.295   6.80000000e+01 
97.259   7.30000000e+01 
97.223   5.90000000e+01 
97.187   8.40000000e+01 
97.151   5.80000000e+01 
97.115   7.40000000e+01 
97.079   4.60000000e+01 
97.043   7.50000000e+01 
97.007   7.90000000e+01 
96.971   7.80000000e+01 
96.935   6.90000000e+01 
96.899   7.30000000e+01 
96.863   7.20000000e+01 
96.827   8.20000000e+01 
96.791   8.90000000e+01 
96.755   9.40000000e+01 
96.720   8.50000000e+01 
96.684   9.80000000e+01 
96.648   9.20000000e+01 
96.612   9.90000000e+01 
96.576   8.50000000e+01 
96.540   8.60000000e+01 
96.504   1.01000000e+02 
96.468   1.12000000e+02 
96.432   1.13000000e+02 
96.396   1.12000000e+02 
96.360   8.20000000e+01 
96.324   1.06000000e+02 
96.288   1.12000000e+02 
96.252   1.15000000e+02 
96.216   1.14000000e+02 
96.180   1.20000000e+02 
96.145   1.19000000e+02 
96.109   1.36000000e+02 
96.073   1.61000000e+02 
96.037   1.42000000e+02 
96.001   1.43000000e+02 
95.965   1.88000000e+02 
95.929   1.64000000e+02 
95.893   1.87000000e+02 
95.857   1.92000000e+02 
95.821   2.11000000e+02 
95.785   1.88000000e+02 
95.749   2.42000000e+02 
95.713   2.45000000e+02 
95.677   2.33000000e+02 
95.641   2.54000000e+02 
95.605   2.70000000e+02 
95.570   2.92000000e+02 
95.534   2.86000000e+02 
95.498   2.69000000e+02 
95.462   3.16000000e+02 
95.426   2.96000000e+02 
95.390   3.41000000e+02 
95.354   3.31000000e+02 
95.318   3.52000000e+02 
95.282   3.52000000e+02 
95.246   3.65000000e+02 
95.210   3.37000000e+02 
95.174   3.32000000e+02 
95.138   3.42000000e+02 
95.102   3.41000000e+02 
95.066   3.28000000e+02 
95.030   3.08000000e+02 
94.995   2.79000000e+02 
94.959   2.77000000e+02 
94.923   2.74000000e+02 
94.887   2.53000000e+02 
94.851   2.15000000e+02 
94.815   2.20000000e+02 
94.779   1.87000000e+02 
94.743   2.03000000e+02 
94.707   1.73000000e+02 
94.671   1.61000000e+02 
94.635   1.37000000e+02 
94.599   1.26000000e+02 
94.563   1.25000000e+02 
94.527   9.90000000e+01 
94.491   1.00000000e+02 
94.455   9.20000000e+01 
94.420   9.10000000e+01 
94.384   8.90000000e+01 
94.348   1.02000000e+02 
94.312   1.03000000e+02 
94.276   8.90000000e+01 
94.240   9.40000000e+01 
94.204   7.40000000e+01 
94.168   7.60000000e+01 
94.132   8.10000000e+01 
94.096   7.80000000e+01 
94.060   7.10000000e+01 
94.024   7.90000000e+01 
93.988   7.00000000e+01 
93.952   6.50000000e+01 
93.916   7.40000000e+01 
93.880   6.40000000e+01 
93.845   6.70000000e+01 
93.809   7.50000000e+01 
93.773   6.30000000e+01 
93.737   6.60000000e+01 
93.701   6.60000000e+01 
93.665   7.50000000e+01 
93.629   5.70000000e+01 
93.593   5.30000000e+01 
93.557   6.70000000e+01 
93.521   6.60000000e+01 
93.485   6.30000000e+01 
93.449   7.90000000e+01 
93.413   8.40000000e+01 
93.377   7.50000000e+01 
93.341   6.60000000e+01 
93.305   7.10000000e+01 
93.270   6.20000000e+01 
93.234   7.60000000e+01 
93.198   6.70000000e+01 
93.162   7.80000000e+01 
93.126   7.10000000e+01 
93.090   9.20000000e+01 
93.054   6.60000000e+01 
93.018   7.40000000e+01 
92.982   8.60000000e+01 
92.946   9.00000000e+01 
92.910   8.90000000e+01 
92.874   1.00000000e+02 
92.838   9.10000000e+01 
92.802   1.07000000e+02 
92.766   9.40000000e+01 
92.730   1.00000000e+02 
92.695   1.07000000e+02 
92.659   1.19000000e+02 
92.623   1.01000000e+02 
92.587   1.12000000e+02 
92.551   1.45000000e+02 
92.515   1.35000000e+02 
92.479   1.41000000e+02 
92.443   1.50000000e+02 
92.407   1.53000000e+02 
92.371   1.63000000e+02 
92.335   1.76000000e+02 
92.299   1.56000000e+02 
92.263   2.02000000e+02 
92.227   1.89000000e+02 
92.191   1.83000000e+02 
92.155   2.30000000e+02 
92.120   2.15000000e+02 
92.084   2.43000000e+02 
92.048   2.71000000e+02 
92.012   2.74000000e+02 
91.976   3.03000000e+02 
91.940   3.32000000e+02 
91.904   3.39000000e+02 
91.868   3.40000000e+02 
91.832   3.89000000e+02 
91.796   3.55000000e+02 
91.760   3.77000000e+02 
91.724   4.11000000e+02 
91.688   4.11000000e+02 
91.652   3.78000000e+02 
91.616   4.73000000e+02 
91.580   3.98000000e+02 
91.545   4.19000000e+02 
91.509   4.25000000e+02 
91.473   4.26000000e+02 
91.437   4.07000000e+02 
91.401   3.84000000e+02 
91.365   3.86000000e+02 
91.329   3.61000000e+02 
91.293   3.36000000e+02 
91.257   2.81000000e+02 
91.221   2.61000000e+02 
91.185   2.74000000e+02 
91.149   2.51000000e+02 
91.113   2.41000000e+02 
91.077   1.97000000e+02 
91.041   1.67000000e+02 
91.005   1.76000000e+02 
90.970   1.37000000e+02 
90.934   1.30000000e+02 
90.898   1.31000000e+02 
90.862   1.06000000e+02 
90.826   9.80000000e+01 
90.790   8.50000000e+01 
90.754   8.00000000e+01 
90.718   8.20000000e+01 
90.682   7.40000000e+01 
90.646   7.20000000e+01 
90.610   6.30000000e+01 
90.574   7.10000000e+01 
90.538   6.00000000e+01 
90.502   7.20000000e+01 
90.466   4.80000000e+01 
90.430   4.60000000e+01 
90.395   5.80000000e+01 
90.359   4.10000000e+01 
90.323   5.70000000e+01 
90.287   4.40000000e+01 
90.251   4.30000000e+01 
90.215   4.80000000e+01 
90.179   4.30000000e+01 
90.143   4.10000000e+01 
90.107   5.20000000e+01 
90.071   4.80000000e+01 
90.035   3.70000000e+01 
89.999   5.20000000e+01 
89.963   4.10000000e+01 
89.927   3.80000000e+01 
89.891   4.10000000e+01 
89.855   4.20000000e+01 
89.820   4.10000000e+01 
89.784   4.30000000e+01 
89.748   3.20000000e+01 
89.712   3.30000000e+01 
89.676   3.60000000e+01 
89.640   3.60000000e+01 
89.604   4.80000000e+01 
89.568   3.70000000e+01 
89.532   4.60000000e+01 
89.496   4.00000000e+01 
89.460   2.60000000e+01 
89.424   3.30000000e+01 
89.388   3.90000000e+01 
89.352   3.60000000e+01 
89.316   3.20000000e+01 
89.280   3.70000000e+01 
89.245   3.30000000e+01 
89.209   3.60000000e+01 
89.173   4.10000000e+01 
89.137   3.10000000e+01 
89.101   4.00000000e+01 
89.065   2.80000000e+01 
89.029   2.60000000e+01 
88.993   3.10000000e+01 
88.957   2.40000000e+01 
88.921   3.80000000e+01 
88.885   3.80000000e+01 
88.849   3.50000000e+01 
88.813   4.00000000e+01 
88.777   4.50000000e+01 
88.741   3.30000000e+01 
88.705   3.50000000e+01 
88.670   3.00000000e+01 
88.634   3.20000000e+01 
88.598   3.80000000e+01 
88.562   3.40000000e+01 
88.526   4.10000000e+01 
88.490   3.60000000e+01 
88.454   3.00000000e+01 
88.418   3.40000000e+01 
88.382   2.60000000e+01 
88.346   2.80000000e+01 
88.310   3.20000000e+01 
88.274   3.70000000e+01 
88.238   2.80000000e+01 
88.202   3.70000000e+01 
88.166   3.80000000e+01 
88.130   3.80000000e+01 
88.095   4.20000000e+01 
88.059   4.60000000e+01 
88.023   3.90000000e+01 

