EXPERIMENT FILE
Version = 2

[ Experiment Parameters ]
Experiment Description= <none> 
Number_of_Regions_in_Experiment= 1 

Original_File_name= C:\alexesca\data\10302012_Au _4f_56nuetral-26_Mono290.xps 
Instrument= HP ESCA West
Date= 10-30-2012
Time=  16:19:14

[ Layer Parameters ]
Layer_Type= XPS

[ Region 1 Parameters ]
Region_Description = Au 4f Dithered Scan                
BEcenter(eV) = 93.000000
BEwidth(eV) = 10.000000
BEstep(eV) = 0.035937
Dwell_Time(sec) = 1.000000
N_o_scans = 1  
N_o_Channels = 278  
Scan_mode = 0  (DITHERED)

[ L= 1 R= 1 ]
BEcenter= 93.000  
BEwidth= -9.955  
Excitation= 1486.600
Time_p_channel= 256.000 
Size= 278
97.977   1.16000000e+02 
97.941   1.37000000e+02 
97.905   1.35000000e+02 
97.870   1.40000000e+02 
97.834   1.43000000e+02 
97.798   1.51000000e+02 
97.762   1.47000000e+02 
97.726   1.40000000e+02 
97.690   1.23000000e+02 
97.654   1.22000000e+02 
97.618   1.42000000e+02 
97.582   1.58000000e+02 
97.546   1.25000000e+02 
97.510   1.50000000e+02 
97.474   1.52000000e+02 
97.438   1.66000000e+02 
97.402   1.23000000e+02 
97.366   1.44000000e+02 
97.330   1.50000000e+02 
97.295   1.33000000e+02 
97.259   1.51000000e+02 
97.223   1.61000000e+02 
97.187   1.41000000e+02 
97.151   1.39000000e+02 
97.115   1.72000000e+02 
97.079   1.60000000e+02 
97.043   1.52000000e+02 
97.007   1.75000000e+02 
96.971   1.67000000e+02 
96.935   1.80000000e+02 
96.899   1.82000000e+02 
96.863   1.92000000e+02 
96.827   1.87000000e+02 
96.791   2.13000000e+02 
96.755   1.97000000e+02 
96.720   2.27000000e+02 
96.684   2.30000000e+02 
96.648   2.15000000e+02 
96.612   2.03000000e+02 
96.576   2.29000000e+02 
96.540   2.52000000e+02 
96.504   2.67000000e+02 
96.468   2.80000000e+02 
96.432   2.88000000e+02 
96.396   3.01000000e+02 
96.360   2.95000000e+02 
96.324   3.10000000e+02 
96.288   3.29000000e+02 
96.252   3.56000000e+02 
96.216   3.37000000e+02 
96.180   3.54000000e+02 
96.145   3.60000000e+02 
96.109   3.94000000e+02 
96.073   4.20000000e+02 
96.037   4.59000000e+02 
96.001   4.66000000e+02 
95.965   5.20000000e+02 
95.929   4.86000000e+02 
95.893   5.22000000e+02 
95.857   5.63000000e+02 
95.821   6.20000000e+02 
95.785   5.57000000e+02 
95.749   5.69000000e+02 
95.713   6.05000000e+02 
95.677   5.96000000e+02 
95.641   6.21000000e+02 
95.605   6.56000000e+02 
95.570   6.66000000e+02 
95.534   6.62000000e+02 
95.498   7.00000000e+02 
95.462   7.35000000e+02 
95.426   7.07000000e+02 
95.390   7.23000000e+02 
95.354   6.82000000e+02 
95.318   6.62000000e+02 
95.282   6.09000000e+02 
95.246   6.39000000e+02 
95.210   5.74000000e+02 
95.174   5.59000000e+02 
95.138   5.27000000e+02 
95.102   4.44000000e+02 
95.066   4.89000000e+02 
95.030   3.93000000e+02 
94.995   3.85000000e+02 
94.959   3.77000000e+02 
94.923   3.27000000e+02 
94.887   2.76000000e+02 
94.851   2.55000000e+02 
94.815   2.16000000e+02 
94.779   2.23000000e+02 
94.743   1.92000000e+02 
94.707   1.69000000e+02 
94.671   1.86000000e+02 
94.635   2.12000000e+02 
94.599   1.65000000e+02 
94.563   1.50000000e+02 
94.527   1.61000000e+02 
94.491   1.51000000e+02 
94.455   1.65000000e+02 
94.420   1.77000000e+02 
94.384   1.52000000e+02 
94.348   1.46000000e+02 
94.312   1.50000000e+02 
94.276   1.73000000e+02 
94.240   1.59000000e+02 
94.204   1.24000000e+02 
94.168   1.34000000e+02 
94.132   1.71000000e+02 
94.096   1.38000000e+02 
94.060   1.41000000e+02 
94.024   1.25000000e+02 
93.988   1.30000000e+02 
93.952   1.35000000e+02 
93.916   1.33000000e+02 
93.880   1.28000000e+02 
93.845   1.35000000e+02 
93.809   1.38000000e+02 
93.773   1.43000000e+02 
93.737   1.05000000e+02 
93.701   1.43000000e+02 
93.665   1.29000000e+02 
93.629   1.35000000e+02 
93.593   1.57000000e+02 
93.557   1.43000000e+02 
93.521   1.47000000e+02 
93.485   1.45000000e+02 
93.449   1.46000000e+02 
93.413   1.35000000e+02 
93.377   1.68000000e+02 
93.341   1.85000000e+02 
93.305   1.64000000e+02 
93.270   1.79000000e+02 
93.234   1.87000000e+02 
93.198   2.05000000e+02 
93.162   2.04000000e+02 
93.126   2.11000000e+02 
93.090   2.03000000e+02 
93.054   1.96000000e+02 
93.018   2.23000000e+02 
92.982   2.29000000e+02 
92.946   2.12000000e+02 
92.910   2.33000000e+02 
92.874   2.32000000e+02 
92.838   2.62000000e+02 
92.802   2.85000000e+02 
92.766   2.76000000e+02 
92.730   2.93000000e+02 
92.695   3.02000000e+02 
92.659   3.22000000e+02 
92.623   3.31000000e+02 
92.587   3.51000000e+02 
92.551   4.11000000e+02 
92.515   3.91000000e+02 
92.479   4.19000000e+02 
92.443   4.54000000e+02 
92.407   4.96000000e+02 
92.371   5.22000000e+02 
92.335   5.17000000e+02 
92.299   5.20000000e+02 
92.263   6.03000000e+02 
92.227   6.29000000e+02 
92.191   6.39000000e+02 
92.155   6.75000000e+02 
92.120   6.69000000e+02 
92.084   6.76000000e+02 
92.048   6.74000000e+02 
92.012   7.14000000e+02 
91.976   7.22000000e+02 
91.940   7.42000000e+02 
91.904   8.24000000e+02 
91.868   7.99000000e+02 
91.832   8.14000000e+02 
91.796   8.11000000e+02 
91.760   8.35000000e+02 
91.724   8.27000000e+02 
91.688   7.99000000e+02 
91.652   8.00000000e+02 
91.616   7.83000000e+02 
91.580   7.21000000e+02 
91.545   6.87000000e+02 
91.509   6.71000000e+02 
91.473   6.26000000e+02 
91.437   5.42000000e+02 
91.401   5.27000000e+02 
91.365   4.49000000e+02 
91.329   4.02000000e+02 
91.293   4.04000000e+02 
91.257   3.56000000e+02 
91.221   3.43000000e+02 
91.185   2.74000000e+02 
91.149   2.54000000e+02 
91.113   2.29000000e+02 
91.077   2.04000000e+02 
91.041   1.95000000e+02 
91.005   1.69000000e+02 
90.970   1.79000000e+02 
90.934   1.57000000e+02 
90.898   1.42000000e+02 
90.862   1.35000000e+02 
90.826   1.13000000e+02 
90.790   1.06000000e+02 
90.754   1.13000000e+02 
90.718   1.24000000e+02 
90.682   1.22000000e+02 
90.646   9.80000000e+01 
90.610   1.06000000e+02 
90.574   1.02000000e+02 
90.538   9.80000000e+01 
90.502   9.60000000e+01 
90.466   1.06000000e+02 
90.430   8.60000000e+01 
90.395   9.50000000e+01 
90.359   7.40000000e+01 
90.323   7.50000000e+01 
90.287   9.70000000e+01 
90.251   6.20000000e+01 
90.215   1.01000000e+02 
90.179   6.80000000e+01 
90.143   8.70000000e+01 
90.107   7.10000000e+01 
90.071   7.60000000e+01 
90.035   8.60000000e+01 
89.999   7.30000000e+01 
89.963   7.60000000e+01 
89.927   6.70000000e+01 
89.891   7.10000000e+01 
89.855   6.50000000e+01 
89.820   5.70000000e+01 
89.784   6.30000000e+01 
89.748   5.80000000e+01 
89.712   6.10000000e+01 
89.676   6.60000000e+01 
89.640   6.40000000e+01 
89.604   5.90000000e+01 
89.568   6.20000000e+01 
89.532   5.90000000e+01 
89.496   5.20000000e+01 
89.460   6.60000000e+01 
89.424   5.40000000e+01 
89.388   5.50000000e+01 
89.352   6.00000000e+01 
89.316   5.70000000e+01 
89.280   6.50000000e+01 
89.245   5.80000000e+01 
89.209   6.50000000e+01 
89.173   5.90000000e+01 
89.137   5.60000000e+01 
89.101   3.90000000e+01 
89.065   5.60000000e+01 
89.029   6.10000000e+01 
88.993   6.00000000e+01 
88.957   6.50000000e+01 
88.921   5.30000000e+01 
88.885   6.00000000e+01 
88.849   5.70000000e+01 
88.813   6.30000000e+01 
88.777   5.60000000e+01 
88.741   6.10000000e+01 
88.705   5.10000000e+01 
88.670   6.40000000e+01 
88.634   6.50000000e+01 
88.598   7.30000000e+01 
88.562   4.30000000e+01 
88.526   5.00000000e+01 
88.490   6.10000000e+01 
88.454   6.90000000e+01 
88.418   5.70000000e+01 
88.382   5.40000000e+01 
88.346   4.40000000e+01 
88.310   5.90000000e+01 
88.274   5.10000000e+01 
88.238   5.90000000e+01 
88.202   5.60000000e+01 
88.166   5.30000000e+01 
88.130   5.20000000e+01 
88.095   4.40000000e+01 
88.059   4.00000000e+01 
88.023   6.60000000e+01 

