EXPERIMENT FILE
Version = 2

[ Experiment Parameters ]
Experiment Description= <none> 
Number_of_Regions_in_Experiment= 1 

Original_File_name= C:\alexesca\data\10302012_Au _4f_56nuetral-26_Mono310.xps 
Instrument= HP ESCA West
Date= 10-31-2012
Time=  13:12:48

[ Layer Parameters ]
Layer_Type= XPS

[ Region 1 Parameters ]
Region_Description = Au 4f Dithered Scan                
BEcenter(eV) = 93.000000
BEwidth(eV) = 10.000000
BEstep(eV) = 0.035937
Dwell_Time(sec) = 1.000000
N_o_scans = 1  
N_o_Channels = 278  
Scan_mode = 0  (DITHERED)

[ L= 1 R= 1 ]
BEcenter= 93.000  
BEwidth= -9.955  
Excitation= 1486.600
Time_p_channel= 256.000 
Size= 278
97.977   1.20000000e+02 
97.941   1.08000000e+02 
97.905   1.18000000e+02 
97.870   1.25000000e+02 
97.834   1.23000000e+02 
97.798   1.23000000e+02 
97.762   1.29000000e+02 
97.726   1.41000000e+02 
97.690   1.24000000e+02 
97.654   1.24000000e+02 
97.618   1.28000000e+02 
97.582   1.42000000e+02 
97.546   1.31000000e+02 
97.510   1.32000000e+02 
97.474   1.26000000e+02 
97.438   1.13000000e+02 
97.402   1.28000000e+02 
97.366   1.42000000e+02 
97.330   1.56000000e+02 
97.295   1.36000000e+02 
97.259   1.47000000e+02 
97.223   1.65000000e+02 
97.187   1.50000000e+02 
97.151   1.62000000e+02 
97.115   1.42000000e+02 
97.079   1.50000000e+02 
97.043   1.61000000e+02 
97.007   1.73000000e+02 
96.971   1.57000000e+02 
96.935   1.53000000e+02 
96.899   1.83000000e+02 
96.863   2.23000000e+02 
96.827   2.07000000e+02 
96.791   1.81000000e+02 
96.755   2.19000000e+02 
96.720   2.29000000e+02 
96.684   2.18000000e+02 
96.648   2.35000000e+02 
96.612   2.43000000e+02 
96.576   2.35000000e+02 
96.540   2.59000000e+02 
96.504   2.86000000e+02 
96.468   2.67000000e+02 
96.432   2.66000000e+02 
96.396   2.92000000e+02 
96.360   3.43000000e+02 
96.324   3.33000000e+02 
96.288   3.51000000e+02 
96.252   3.50000000e+02 
96.216   3.78000000e+02 
96.180   4.04000000e+02 
96.145   3.87000000e+02 
96.109   3.86000000e+02 
96.073   4.41000000e+02 
96.037   4.33000000e+02 
96.001   4.19000000e+02 
95.965   4.48000000e+02 
95.929   5.23000000e+02 
95.893   4.88000000e+02 
95.857   5.34000000e+02 
95.821   5.39000000e+02 
95.785   5.42000000e+02 
95.749   5.35000000e+02 
95.713   5.37000000e+02 
95.677   5.77000000e+02 
95.641   5.79000000e+02 
95.605   5.57000000e+02 
95.570   5.40000000e+02 
95.534   5.28000000e+02 
95.498   5.94000000e+02 
95.462   5.45000000e+02 
95.426   5.14000000e+02 
95.390   5.10000000e+02 
95.354   5.00000000e+02 
95.318   4.81000000e+02 
95.282   4.70000000e+02 
95.246   4.17000000e+02 
95.210   3.84000000e+02 
95.174   3.83000000e+02 
95.138   3.21000000e+02 
95.102   2.96000000e+02 
95.066   2.66000000e+02 
95.030   2.59000000e+02 
94.995   2.53000000e+02 
94.959   2.62000000e+02 
94.923   1.96000000e+02 
94.887   2.09000000e+02 
94.851   1.65000000e+02 
94.815   1.88000000e+02 
94.779   1.69000000e+02 
94.743   1.48000000e+02 
94.707   1.54000000e+02 
94.671   1.35000000e+02 
94.635   1.22000000e+02 
94.599   1.31000000e+02 
94.563   1.37000000e+02 
94.527   1.41000000e+02 
94.491   1.18000000e+02 
94.455   1.33000000e+02 
94.420   1.31000000e+02 
94.384   1.25000000e+02 
94.348   1.34000000e+02 
94.312   1.33000000e+02 
94.276   1.33000000e+02 
94.240   1.08000000e+02 
94.204   1.40000000e+02 
94.168   1.19000000e+02 
94.132   1.27000000e+02 
94.096   1.16000000e+02 
94.060   1.27000000e+02 
94.024   1.15000000e+02 
93.988   9.90000000e+01 
93.952   1.16000000e+02 
93.916   1.05000000e+02 
93.880   1.34000000e+02 
93.845   1.21000000e+02 
93.809   1.35000000e+02 
93.773   1.29000000e+02 
93.737   1.23000000e+02 
93.701   1.53000000e+02 
93.665   1.28000000e+02 
93.629   1.48000000e+02 
93.593   1.30000000e+02 
93.557   1.39000000e+02 
93.521   1.39000000e+02 
93.485   1.26000000e+02 
93.449   1.61000000e+02 
93.413   1.33000000e+02 
93.377   1.66000000e+02 
93.341   1.69000000e+02 
93.305   2.01000000e+02 
93.270   2.02000000e+02 
93.234   1.99000000e+02 
93.198   1.89000000e+02 
93.162   1.85000000e+02 
93.126   2.32000000e+02 
93.090   2.22000000e+02 
93.054   2.25000000e+02 
93.018   2.21000000e+02 
92.982   2.29000000e+02 
92.946   2.60000000e+02 
92.910   3.01000000e+02 
92.874   2.84000000e+02 
92.838   3.10000000e+02 
92.802   3.13000000e+02 
92.766   3.07000000e+02 
92.730   3.42000000e+02 
92.695   3.46000000e+02 
92.659   3.86000000e+02 
92.623   3.99000000e+02 
92.587   4.40000000e+02 
92.551   4.34000000e+02 
92.515   4.43000000e+02 
92.479   4.60000000e+02 
92.443   5.09000000e+02 
92.407   4.92000000e+02 
92.371   5.24000000e+02 
92.335   5.81000000e+02 
92.299   5.73000000e+02 
92.263   5.79000000e+02 
92.227   5.48000000e+02 
92.191   6.46000000e+02 
92.155   5.80000000e+02 
92.120   6.14000000e+02 
92.084   6.48000000e+02 
92.048   6.36000000e+02 
92.012   6.23000000e+02 
91.976   6.29000000e+02 
91.940   6.73000000e+02 
91.904   6.65000000e+02 
91.868   6.85000000e+02 
91.832   7.02000000e+02 
91.796   6.58000000e+02 
91.760   5.77000000e+02 
91.724   6.05000000e+02 
91.688   5.73000000e+02 
91.652   5.76000000e+02 
91.616   5.17000000e+02 
91.580   4.55000000e+02 
91.545   4.60000000e+02 
91.509   3.96000000e+02 
91.473   3.35000000e+02 
91.437   3.35000000e+02 
91.401   3.07000000e+02 
91.365   2.51000000e+02 
91.329   2.46000000e+02 
91.293   2.38000000e+02 
91.257   2.11000000e+02 
91.221   1.88000000e+02 
91.185   1.82000000e+02 
91.149   1.59000000e+02 
91.113   1.46000000e+02 
91.077   1.25000000e+02 
91.041   1.21000000e+02 
91.005   1.17000000e+02 
90.970   1.17000000e+02 
90.934   1.12000000e+02 
90.898   1.04000000e+02 
90.862   8.60000000e+01 
90.826   8.30000000e+01 
90.790   8.10000000e+01 
90.754   8.90000000e+01 
90.718   8.10000000e+01 
90.682   9.60000000e+01 
90.646   7.00000000e+01 
90.610   7.70000000e+01 
90.574   8.70000000e+01 
90.538   7.70000000e+01 
90.502   6.50000000e+01 
90.466   6.00000000e+01 
90.430   5.90000000e+01 
90.395   6.90000000e+01 
90.359   7.70000000e+01 
90.323   5.80000000e+01 
90.287   7.40000000e+01 
90.251   7.10000000e+01 
90.215   7.10000000e+01 
90.179   6.50000000e+01 
90.143   6.30000000e+01 
90.107   5.60000000e+01 
90.071   6.20000000e+01 
90.035   7.10000000e+01 
89.999   5.80000000e+01 
89.963   6.00000000e+01 
89.927   6.80000000e+01 
89.891   5.70000000e+01 
89.855   5.40000000e+01 
89.820   3.90000000e+01 
89.784   4.70000000e+01 
89.748   4.80000000e+01 
89.712   5.00000000e+01 
89.676   4.30000000e+01 
89.640   4.70000000e+01 
89.604   6.00000000e+01 
89.568   4.90000000e+01 
89.532   4.70000000e+01 
89.496   5.10000000e+01 
89.460   4.20000000e+01 
89.424   4.50000000e+01 
89.388   4.50000000e+01 
89.352   5.20000000e+01 
89.316   4.60000000e+01 
89.280   5.70000000e+01 
89.245   4.70000000e+01 
89.209   6.00000000e+01 
89.173   5.70000000e+01 
89.137   5.10000000e+01 
89.101   4.30000000e+01 
89.065   3.10000000e+01 
89.029   4.50000000e+01 
88.993   4.80000000e+01 
88.957   5.40000000e+01 
88.921   5.10000000e+01 
88.885   5.60000000e+01 
88.849   5.00000000e+01 
88.813   4.80000000e+01 
88.777   4.20000000e+01 
88.741   4.80000000e+01 
88.705   3.90000000e+01 
88.670   4.50000000e+01 
88.634   5.80000000e+01 
88.598   4.80000000e+01 
88.562   5.10000000e+01 
88.526   4.30000000e+01 
88.490   4.30000000e+01 
88.454   5.20000000e+01 
88.418   4.40000000e+01 
88.382   3.80000000e+01 
88.346   4.40000000e+01 
88.310   5.00000000e+01 
88.274   5.20000000e+01 
88.238   4.50000000e+01 
88.202   4.10000000e+01 
88.166   3.60000000e+01 
88.130   4.10000000e+01 
88.095   5.00000000e+01 
88.059   4.20000000e+01 
88.023   4.50000000e+01 

