EXPERIMENT FILE
Version = 2

[ Experiment Parameters ]
Experiment Description= <none> 
Number_of_Regions_in_Experiment= 1 

Original_File_name= C:\alexesca\data\10312012_Au _4f_57nuetral-7_Mono275.xps 
Instrument= HP ESCA West
Date= 10-31-2012
Time=  15:54:56

[ Layer Parameters ]
Layer_Type= XPS

[ Region 1 Parameters ]
Region_Description = Au 4f Dithered Scan                
BEcenter(eV) = 93.000000
BEwidth(eV) = 10.000000
BEstep(eV) = 0.035937
Dwell_Time(sec) = 1.000000
N_o_scans = 1  
N_o_Channels = 278  
Scan_mode = 0  (DITHERED)

[ L= 1 R= 1 ]
BEcenter= 93.000  
BEwidth= -9.955  
Excitation= 1486.600
Time_p_channel= 256.000 
Size= 278
97.977   3.39000000e+02 
97.941   3.09000000e+02 
97.905   3.41000000e+02 
97.870   3.64000000e+02 
97.834   3.60000000e+02 
97.798   3.49000000e+02 
97.762   3.63000000e+02 
97.726   3.14000000e+02 
97.690   3.56000000e+02 
97.654   3.44000000e+02 
97.618   3.60000000e+02 
97.582   3.72000000e+02 
97.546   3.63000000e+02 
97.510   3.84000000e+02 
97.474   3.65000000e+02 
97.438   3.96000000e+02 
97.402   4.17000000e+02 
97.366   3.90000000e+02 
97.330   4.10000000e+02 
97.295   4.51000000e+02 
97.259   4.49000000e+02 
97.223   4.95000000e+02 
97.187   4.68000000e+02 
97.151   4.89000000e+02 
97.115   4.82000000e+02 
97.079   4.99000000e+02 
97.043   5.17000000e+02 
97.007   5.36000000e+02 
96.971   5.24000000e+02 
96.935   5.79000000e+02 
96.899   6.36000000e+02 
96.863   6.19000000e+02 
96.827   6.74000000e+02 
96.791   6.40000000e+02 
96.755   6.68000000e+02 
96.720   7.03000000e+02 
96.684   7.06000000e+02 
96.648   7.47000000e+02 
96.612   7.94000000e+02 
96.576   8.00000000e+02 
96.540   8.46000000e+02 
96.504   8.38000000e+02 
96.468   8.81000000e+02 
96.432   1.01200000e+03 
96.396   9.93000000e+02 
96.360   1.02300000e+03 
96.324   1.05800000e+03 
96.288   1.09400000e+03 
96.252   1.12000000e+03 
96.216   1.15500000e+03 
96.180   1.20400000e+03 
96.145   1.22200000e+03 
96.109   1.24900000e+03 
96.073   1.33800000e+03 
96.037   1.34400000e+03 
96.001   1.39800000e+03 
95.965   1.44500000e+03 
95.929   1.51900000e+03 
95.893   1.50100000e+03 
95.857   1.47300000e+03 
95.821   1.61800000e+03 
95.785   1.63500000e+03 
95.749   1.63100000e+03 
95.713   1.69700000e+03 
95.677   1.67400000e+03 
95.641   1.68700000e+03 
95.605   1.66800000e+03 
95.570   1.68600000e+03 
95.534   1.60800000e+03 
95.498   1.58300000e+03 
95.462   1.58100000e+03 
95.426   1.56400000e+03 
95.390   1.42300000e+03 
95.354   1.41400000e+03 
95.318   1.36800000e+03 
95.282   1.29600000e+03 
95.246   1.22200000e+03 
95.210   1.13500000e+03 
95.174   1.00600000e+03 
95.138   9.08000000e+02 
95.102   8.49000000e+02 
95.066   8.38000000e+02 
95.030   7.46000000e+02 
94.995   7.14000000e+02 
94.959   6.52000000e+02 
94.923   5.65000000e+02 
94.887   5.41000000e+02 
94.851   5.05000000e+02 
94.815   5.09000000e+02 
94.779   4.56000000e+02 
94.743   4.29000000e+02 
94.707   4.14000000e+02 
94.671   4.17000000e+02 
94.635   4.36000000e+02 
94.599   3.60000000e+02 
94.563   3.59000000e+02 
94.527   3.66000000e+02 
94.491   3.99000000e+02 
94.455   3.77000000e+02 
94.420   3.84000000e+02 
94.384   3.69000000e+02 
94.348   3.47000000e+02 
94.312   3.46000000e+02 
94.276   3.66000000e+02 
94.240   3.41000000e+02 
94.204   3.20000000e+02 
94.168   3.43000000e+02 
94.132   3.84000000e+02 
94.096   3.33000000e+02 
94.060   3.31000000e+02 
94.024   3.36000000e+02 
93.988   3.67000000e+02 
93.952   3.76000000e+02 
93.916   3.48000000e+02 
93.880   3.78000000e+02 
93.845   3.81000000e+02 
93.809   4.02000000e+02 
93.773   3.72000000e+02 
93.737   3.87000000e+02 
93.701   3.93000000e+02 
93.665   4.21000000e+02 
93.629   4.24000000e+02 
93.593   4.38000000e+02 
93.557   4.76000000e+02 
93.521   4.80000000e+02 
93.485   4.57000000e+02 
93.449   4.74000000e+02 
93.413   4.97000000e+02 
93.377   5.29000000e+02 
93.341   5.45000000e+02 
93.305   5.61000000e+02 
93.270   5.51000000e+02 
93.234   6.21000000e+02 
93.198   6.69000000e+02 
93.162   6.45000000e+02 
93.126   6.67000000e+02 
93.090   6.96000000e+02 
93.054   7.68000000e+02 
93.018   7.52000000e+02 
92.982   8.02000000e+02 
92.946   8.27000000e+02 
92.910   8.59000000e+02 
92.874   9.28000000e+02 
92.838   9.27000000e+02 
92.802   1.02800000e+03 
92.766   9.95000000e+02 
92.730   1.16000000e+03 
92.695   1.19500000e+03 
92.659   1.20100000e+03 
92.623   1.10900000e+03 
92.587   1.25100000e+03 
92.551   1.33200000e+03 
92.515   1.36700000e+03 
92.479   1.36400000e+03 
92.443   1.44000000e+03 
92.407   1.57000000e+03 
92.371   1.62100000e+03 
92.335   1.61800000e+03 
92.299   1.62400000e+03 
92.263   1.73100000e+03 
92.227   1.78900000e+03 
92.191   1.83700000e+03 
92.155   1.99000000e+03 
92.120   1.91200000e+03 
92.084   1.95600000e+03 
92.048   2.07100000e+03 
92.012   2.07200000e+03 
91.976   2.00500000e+03 
91.940   2.05400000e+03 
91.904   2.12300000e+03 
91.868   2.00800000e+03 
91.832   2.01800000e+03 
91.796   1.97700000e+03 
91.760   1.94600000e+03 
91.724   1.88400000e+03 
91.688   1.76200000e+03 
91.652   1.72400000e+03 
91.616   1.59300000e+03 
91.580   1.52100000e+03 
91.545   1.36400000e+03 
91.509   1.27000000e+03 
91.473   1.12200000e+03 
91.437   9.73000000e+02 
91.401   8.91000000e+02 
91.365   8.21000000e+02 
91.329   8.08000000e+02 
91.293   6.89000000e+02 
91.257   6.18000000e+02 
91.221   6.01000000e+02 
91.185   5.27000000e+02 
91.149   4.60000000e+02 
91.113   4.14000000e+02 
91.077   3.98000000e+02 
91.041   3.81000000e+02 
91.005   3.64000000e+02 
90.970   3.19000000e+02 
90.934   2.80000000e+02 
90.898   2.92000000e+02 
90.862   2.73000000e+02 
90.826   2.68000000e+02 
90.790   2.57000000e+02 
90.754   2.51000000e+02 
90.718   2.60000000e+02 
90.682   2.13000000e+02 
90.646   2.28000000e+02 
90.610   2.32000000e+02 
90.574   1.90000000e+02 
90.538   1.98000000e+02 
90.502   1.91000000e+02 
90.466   2.03000000e+02 
90.430   1.84000000e+02 
90.395   2.12000000e+02 
90.359   1.74000000e+02 
90.323   1.72000000e+02 
90.287   1.88000000e+02 
90.251   1.60000000e+02 
90.215   1.75000000e+02 
90.179   1.65000000e+02 
90.143   1.68000000e+02 
90.107   1.68000000e+02 
90.071   1.46000000e+02 
90.035   1.60000000e+02 
89.999   1.44000000e+02 
89.963   1.60000000e+02 
89.927   1.67000000e+02 
89.891   1.42000000e+02 
89.855   1.51000000e+02 
89.820   1.33000000e+02 
89.784   1.51000000e+02 
89.748   1.70000000e+02 
89.712   1.40000000e+02 
89.676   1.37000000e+02 
89.640   1.57000000e+02 
89.604   1.25000000e+02 
89.568   1.49000000e+02 
89.532   1.41000000e+02 
89.496   1.39000000e+02 
89.460   1.46000000e+02 
89.424   1.30000000e+02 
89.388   1.40000000e+02 
89.352   1.45000000e+02 
89.316   1.45000000e+02 
89.280   1.29000000e+02 
89.245   1.56000000e+02 
89.209   9.60000000e+01 
89.173   1.20000000e+02 
89.137   1.25000000e+02 
89.101   1.28000000e+02 
89.065   1.34000000e+02 
89.029   1.22000000e+02 
88.993   1.28000000e+02 
88.957   1.22000000e+02 
88.921   1.32000000e+02 
88.885   1.18000000e+02 
88.849   1.42000000e+02 
88.813   1.35000000e+02 
88.777   1.28000000e+02 
88.741   1.39000000e+02 
88.705   1.21000000e+02 
88.670   1.17000000e+02 
88.634   1.22000000e+02 
88.598   1.09000000e+02 
88.562   1.29000000e+02 
88.526   1.17000000e+02 
88.490   1.29000000e+02 
88.454   1.19000000e+02 
88.418   1.10000000e+02 
88.382   1.17000000e+02 
88.346   1.19000000e+02 
88.310   1.29000000e+02 
88.274   1.09000000e+02 
88.238   1.30000000e+02 
88.202   1.14000000e+02 
88.166   1.45000000e+02 
88.130   1.12000000e+02 
88.095   1.16000000e+02 
88.059   1.02000000e+02 
88.023   1.16000000e+02 

