EXPERIMENT FILE
Version = 2

[ Experiment Parameters ]
Experiment Description= <none> 
Number_of_Regions_in_Experiment= 1 

Original_File_name= C:\alexesca\data\10312012_Au _4f_56nuetral-26_Mono265.xps 
Instrument= HP ESCA West
Date= 10-31-2012
Time=  14:12:32

[ Layer Parameters ]
Layer_Type= XPS

[ Region 1 Parameters ]
Region_Description = Au 4f Dithered Scan                
BEcenter(eV) = 93.000000
BEwidth(eV) = 10.000000
BEstep(eV) = 0.035937
Dwell_Time(sec) = 1.000000
N_o_scans = 1  
N_o_Channels = 278  
Scan_mode = 0  (DITHERED)

[ L= 1 R= 1 ]
BEcenter= 93.000  
BEwidth= -9.955  
Excitation= 1486.600
Time_p_channel= 256.000 
Size= 278
97.977   1.34000000e+02 
97.941   1.28000000e+02 
97.905   1.25000000e+02 
97.870   1.15000000e+02 
97.834   1.36000000e+02 
97.798   1.48000000e+02 
97.762   1.41000000e+02 
97.726   1.22000000e+02 
97.690   1.35000000e+02 
97.654   1.35000000e+02 
97.618   1.51000000e+02 
97.582   1.46000000e+02 
97.546   1.47000000e+02 
97.510   1.39000000e+02 
97.474   1.49000000e+02 
97.438   1.09000000e+02 
97.402   1.54000000e+02 
97.366   1.33000000e+02 
97.330   1.38000000e+02 
97.295   1.45000000e+02 
97.259   1.57000000e+02 
97.223   1.60000000e+02 
97.187   1.62000000e+02 
97.151   1.66000000e+02 
97.115   1.90000000e+02 
97.079   1.55000000e+02 
97.043   1.74000000e+02 
97.007   1.63000000e+02 
96.971   1.68000000e+02 
96.935   1.42000000e+02 
96.899   1.50000000e+02 
96.863   1.67000000e+02 
96.827   1.78000000e+02 
96.791   1.89000000e+02 
96.755   1.64000000e+02 
96.720   1.72000000e+02 
96.684   1.93000000e+02 
96.648   1.92000000e+02 
96.612   1.88000000e+02 
96.576   2.32000000e+02 
96.540   1.85000000e+02 
96.504   2.05000000e+02 
96.468   2.17000000e+02 
96.432   2.46000000e+02 
96.396   2.66000000e+02 
96.360   2.46000000e+02 
96.324   2.82000000e+02 
96.288   2.84000000e+02 
96.252   2.77000000e+02 
96.216   2.78000000e+02 
96.180   3.15000000e+02 
96.145   3.35000000e+02 
96.109   3.47000000e+02 
96.073   3.68000000e+02 
96.037   3.85000000e+02 
96.001   3.83000000e+02 
95.965   4.51000000e+02 
95.929   4.47000000e+02 
95.893   4.46000000e+02 
95.857   4.94000000e+02 
95.821   5.14000000e+02 
95.785   5.13000000e+02 
95.749   5.30000000e+02 
95.713   5.77000000e+02 
95.677   6.09000000e+02 
95.641   5.88000000e+02 
95.605   6.62000000e+02 
95.570   6.49000000e+02 
95.534   6.97000000e+02 
95.498   7.40000000e+02 
95.462   7.27000000e+02 
95.426   7.48000000e+02 
95.390   7.71000000e+02 
95.354   7.82000000e+02 
95.318   7.95000000e+02 
95.282   7.57000000e+02 
95.246   7.68000000e+02 
95.210   6.57000000e+02 
95.174   6.96000000e+02 
95.138   6.54000000e+02 
95.102   7.09000000e+02 
95.066   5.98000000e+02 
95.030   5.17000000e+02 
94.995   5.34000000e+02 
94.959   4.93000000e+02 
94.923   4.31000000e+02 
94.887   4.24000000e+02 
94.851   3.66000000e+02 
94.815   3.29000000e+02 
94.779   3.16000000e+02 
94.743   2.55000000e+02 
94.707   2.87000000e+02 
94.671   2.50000000e+02 
94.635   2.21000000e+02 
94.599   2.04000000e+02 
94.563   1.92000000e+02 
94.527   2.22000000e+02 
94.491   1.72000000e+02 
94.455   1.72000000e+02 
94.420   1.65000000e+02 
94.384   1.80000000e+02 
94.348   1.68000000e+02 
94.312   1.57000000e+02 
94.276   1.46000000e+02 
94.240   1.47000000e+02 
94.204   1.53000000e+02 
94.168   1.35000000e+02 
94.132   1.55000000e+02 
94.096   1.33000000e+02 
94.060   1.45000000e+02 
94.024   1.40000000e+02 
93.988   1.50000000e+02 
93.952   1.40000000e+02 
93.916   1.33000000e+02 
93.880   1.58000000e+02 
93.845   1.19000000e+02 
93.809   1.41000000e+02 
93.773   1.33000000e+02 
93.737   1.22000000e+02 
93.701   1.12000000e+02 
93.665   1.45000000e+02 
93.629   1.50000000e+02 
93.593   1.29000000e+02 
93.557   1.26000000e+02 
93.521   1.32000000e+02 
93.485   1.55000000e+02 
93.449   1.31000000e+02 
93.413   1.30000000e+02 
93.377   1.50000000e+02 
93.341   1.40000000e+02 
93.305   1.54000000e+02 
93.270   1.69000000e+02 
93.234   1.61000000e+02 
93.198   1.70000000e+02 
93.162   1.55000000e+02 
93.126   1.63000000e+02 
93.090   1.73000000e+02 
93.054   1.85000000e+02 
93.018   1.75000000e+02 
92.982   1.72000000e+02 
92.946   1.82000000e+02 
92.910   2.15000000e+02 
92.874   2.26000000e+02 
92.838   2.16000000e+02 
92.802   2.23000000e+02 
92.766   2.30000000e+02 
92.730   2.38000000e+02 
92.695   2.75000000e+02 
92.659   2.68000000e+02 
92.623   2.87000000e+02 
92.587   2.94000000e+02 
92.551   3.57000000e+02 
92.515   3.35000000e+02 
92.479   3.16000000e+02 
92.443   3.53000000e+02 
92.407   3.94000000e+02 
92.371   3.93000000e+02 
92.335   4.09000000e+02 
92.299   4.58000000e+02 
92.263   4.43000000e+02 
92.227   5.41000000e+02 
92.191   5.66000000e+02 
92.155   5.37000000e+02 
92.120   6.00000000e+02 
92.084   6.27000000e+02 
92.048   6.28000000e+02 
92.012   6.63000000e+02 
91.976   7.48000000e+02 
91.940   7.66000000e+02 
91.904   8.10000000e+02 
91.868   8.22000000e+02 
91.832   8.62000000e+02 
91.796   8.83000000e+02 
91.760   8.88000000e+02 
91.724   8.82000000e+02 
91.688   9.47000000e+02 
91.652   9.52000000e+02 
91.616   8.69000000e+02 
91.580   8.92000000e+02 
91.545   9.09000000e+02 
91.509   8.58000000e+02 
91.473   7.72000000e+02 
91.437   8.19000000e+02 
91.401   7.69000000e+02 
91.365   6.62000000e+02 
91.329   6.52000000e+02 
91.293   5.55000000e+02 
91.257   5.41000000e+02 
91.221   4.55000000e+02 
91.185   3.97000000e+02 
91.149   3.61000000e+02 
91.113   3.51000000e+02 
91.077   3.07000000e+02 
91.041   2.68000000e+02 
91.005   2.18000000e+02 
90.970   2.46000000e+02 
90.934   1.75000000e+02 
90.898   1.88000000e+02 
90.862   1.76000000e+02 
90.826   1.55000000e+02 
90.790   1.49000000e+02 
90.754   1.07000000e+02 
90.718   1.16000000e+02 
90.682   1.14000000e+02 
90.646   1.23000000e+02 
90.610   9.50000000e+01 
90.574   1.02000000e+02 
90.538   1.03000000e+02 
90.502   1.17000000e+02 
90.466   9.80000000e+01 
90.430   9.00000000e+01 
90.395   8.40000000e+01 
90.359   1.13000000e+02 
90.323   9.40000000e+01 
90.287   7.80000000e+01 
90.251   9.00000000e+01 
90.215   9.80000000e+01 
90.179   8.40000000e+01 
90.143   8.80000000e+01 
90.107   7.40000000e+01 
90.071   8.80000000e+01 
90.035   8.50000000e+01 
89.999   6.10000000e+01 
89.963   9.70000000e+01 
89.927   8.00000000e+01 
89.891   8.60000000e+01 
89.855   8.40000000e+01 
89.820   7.80000000e+01 
89.784   6.30000000e+01 
89.748   7.10000000e+01 
89.712   7.90000000e+01 
89.676   7.10000000e+01 
89.640   8.10000000e+01 
89.604   6.10000000e+01 
89.568   7.00000000e+01 
89.532   6.70000000e+01 
89.496   6.50000000e+01 
89.460   5.70000000e+01 
89.424   6.30000000e+01 
89.388   6.00000000e+01 
89.352   5.40000000e+01 
89.316   7.00000000e+01 
89.280   6.40000000e+01 
89.245   5.40000000e+01 
89.209   7.50000000e+01 
89.173   6.80000000e+01 
89.137   7.80000000e+01 
89.101   6.80000000e+01 
89.065   5.70000000e+01 
89.029   7.80000000e+01 
88.993   5.60000000e+01 
88.957   5.70000000e+01 
88.921   7.30000000e+01 
88.885   7.80000000e+01 
88.849   5.50000000e+01 
88.813   5.70000000e+01 
88.777   6.30000000e+01 
88.741   5.70000000e+01 
88.705   6.90000000e+01 
88.670   4.80000000e+01 
88.634   5.40000000e+01 
88.598   5.20000000e+01 
88.562   5.30000000e+01 
88.526   6.60000000e+01 
88.490   5.90000000e+01 
88.454   5.70000000e+01 
88.418   5.30000000e+01 
88.382   6.10000000e+01 
88.346   6.00000000e+01 
88.310   7.50000000e+01 
88.274   6.90000000e+01 
88.238   6.70000000e+01 
88.202   5.10000000e+01 
88.166   6.10000000e+01 
88.130   4.40000000e+01 
88.095   6.30000000e+01 
88.059   6.60000000e+01 
88.023   6.00000000e+01 

