EXPERIMENT FILE
Version = 2

[ Experiment Parameters ]
Experiment Description= <none> 
Number_of_Regions_in_Experiment= 1 

Original_File_name= C:\alexesca\data\10312012_Au _4f_56nuetral-36_Mono265.xps 
Instrument= HP ESCA West
Date= 10-31-2012
Time=  14:40:15

[ Layer Parameters ]
Layer_Type= XPS

[ Region 1 Parameters ]
Region_Description = Au 4f Dithered Scan                
BEcenter(eV) = 93.000000
BEwidth(eV) = 10.000000
BEstep(eV) = 0.035937
Dwell_Time(sec) = 1.000000
N_o_scans = 1  
N_o_Channels = 278  
Scan_mode = 0  (DITHERED)

[ L= 1 R= 1 ]
BEcenter= 93.000  
BEwidth= -9.955  
Excitation= 1486.600
Time_p_channel= 256.000 
Size= 278
97.977   6.80000000e+01 
97.941   9.90000000e+01 
97.905   6.20000000e+01 
97.870   7.40000000e+01 
97.834   6.40000000e+01 
97.798   7.10000000e+01 
97.762   7.30000000e+01 
97.726   6.30000000e+01 
97.690   8.00000000e+01 
97.654   7.10000000e+01 
97.618   7.60000000e+01 
97.582   9.70000000e+01 
97.546   7.20000000e+01 
97.510   6.90000000e+01 
97.474   6.70000000e+01 
97.438   6.60000000e+01 
97.402   7.10000000e+01 
97.366   6.30000000e+01 
97.330   8.40000000e+01 
97.295   7.00000000e+01 
97.259   7.20000000e+01 
97.223   6.70000000e+01 
97.187   7.70000000e+01 
97.151   6.50000000e+01 
97.115   8.10000000e+01 
97.079   8.70000000e+01 
97.043   8.50000000e+01 
97.007   9.50000000e+01 
96.971   8.30000000e+01 
96.935   8.50000000e+01 
96.899   9.70000000e+01 
96.863   1.00000000e+02 
96.827   1.19000000e+02 
96.791   1.03000000e+02 
96.755   9.30000000e+01 
96.720   8.60000000e+01 
96.684   1.18000000e+02 
96.648   1.06000000e+02 
96.612   1.06000000e+02 
96.576   1.20000000e+02 
96.540   1.13000000e+02 
96.504   1.36000000e+02 
96.468   1.29000000e+02 
96.432   1.23000000e+02 
96.396   1.40000000e+02 
96.360   1.44000000e+02 
96.324   1.63000000e+02 
96.288   1.39000000e+02 
96.252   1.65000000e+02 
96.216   1.88000000e+02 
96.180   2.03000000e+02 
96.145   2.25000000e+02 
96.109   1.92000000e+02 
96.073   2.36000000e+02 
96.037   2.48000000e+02 
96.001   2.67000000e+02 
95.965   2.63000000e+02 
95.929   2.72000000e+02 
95.893   2.89000000e+02 
95.857   2.87000000e+02 
95.821   2.98000000e+02 
95.785   3.18000000e+02 
95.749   3.71000000e+02 
95.713   3.39000000e+02 
95.677   3.62000000e+02 
95.641   3.50000000e+02 
95.605   3.52000000e+02 
95.570   4.06000000e+02 
95.534   3.85000000e+02 
95.498   3.68000000e+02 
95.462   3.61000000e+02 
95.426   3.66000000e+02 
95.390   3.14000000e+02 
95.354   3.17000000e+02 
95.318   3.05000000e+02 
95.282   2.93000000e+02 
95.246   2.72000000e+02 
95.210   2.21000000e+02 
95.174   2.31000000e+02 
95.138   2.14000000e+02 
95.102   2.12000000e+02 
95.066   1.87000000e+02 
95.030   1.61000000e+02 
94.995   1.42000000e+02 
94.959   1.51000000e+02 
94.923   1.36000000e+02 
94.887   1.19000000e+02 
94.851   1.08000000e+02 
94.815   1.19000000e+02 
94.779   1.03000000e+02 
94.743   8.70000000e+01 
94.707   8.40000000e+01 
94.671   9.10000000e+01 
94.635   1.03000000e+02 
94.599   7.00000000e+01 
94.563   7.80000000e+01 
94.527   7.10000000e+01 
94.491   8.80000000e+01 
94.455   7.40000000e+01 
94.420   7.20000000e+01 
94.384   7.90000000e+01 
94.348   7.90000000e+01 
94.312   6.10000000e+01 
94.276   6.80000000e+01 
94.240   7.00000000e+01 
94.204   6.40000000e+01 
94.168   8.10000000e+01 
94.132   6.60000000e+01 
94.096   6.70000000e+01 
94.060   6.40000000e+01 
94.024   6.20000000e+01 
93.988   6.80000000e+01 
93.952   7.20000000e+01 
93.916   5.80000000e+01 
93.880   6.90000000e+01 
93.845   7.50000000e+01 
93.809   5.00000000e+01 
93.773   7.80000000e+01 
93.737   6.70000000e+01 
93.701   7.80000000e+01 
93.665   8.00000000e+01 
93.629   6.90000000e+01 
93.593   7.10000000e+01 
93.557   8.00000000e+01 
93.521   6.50000000e+01 
93.485   8.10000000e+01 
93.449   7.90000000e+01 
93.413   7.70000000e+01 
93.377   8.30000000e+01 
93.341   8.20000000e+01 
93.305   6.50000000e+01 
93.270   8.90000000e+01 
93.234   8.50000000e+01 
93.198   8.60000000e+01 
93.162   9.00000000e+01 
93.126   8.10000000e+01 
93.090   1.01000000e+02 
93.054   1.02000000e+02 
93.018   9.00000000e+01 
92.982   1.10000000e+02 
92.946   1.07000000e+02 
92.910   9.90000000e+01 
92.874   1.07000000e+02 
92.838   1.38000000e+02 
92.802   1.34000000e+02 
92.766   1.36000000e+02 
92.730   1.78000000e+02 
92.695   1.76000000e+02 
92.659   1.62000000e+02 
92.623   1.51000000e+02 
92.587   1.83000000e+02 
92.551   2.07000000e+02 
92.515   2.13000000e+02 
92.479   2.48000000e+02 
92.443   2.56000000e+02 
92.407   2.48000000e+02 
92.371   2.76000000e+02 
92.335   2.70000000e+02 
92.299   2.83000000e+02 
92.263   3.17000000e+02 
92.227   3.21000000e+02 
92.191   3.64000000e+02 
92.155   3.56000000e+02 
92.120   3.69000000e+02 
92.084   3.92000000e+02 
92.048   3.88000000e+02 
92.012   4.41000000e+02 
91.976   4.49000000e+02 
91.940   4.30000000e+02 
91.904   4.30000000e+02 
91.868   4.83000000e+02 
91.832   4.79000000e+02 
91.796   4.35000000e+02 
91.760   4.30000000e+02 
91.724   3.95000000e+02 
91.688   3.88000000e+02 
91.652   3.58000000e+02 
91.616   3.40000000e+02 
91.580   3.30000000e+02 
91.545   3.27000000e+02 
91.509   2.71000000e+02 
91.473   2.30000000e+02 
91.437   2.31000000e+02 
91.401   1.85000000e+02 
91.365   1.62000000e+02 
91.329   1.54000000e+02 
91.293   1.57000000e+02 
91.257   1.09000000e+02 
91.221   1.24000000e+02 
91.185   1.10000000e+02 
91.149   9.80000000e+01 
91.113   7.60000000e+01 
91.077   9.00000000e+01 
91.041   8.70000000e+01 
91.005   7.20000000e+01 
90.970   7.90000000e+01 
90.934   6.60000000e+01 
90.898   6.20000000e+01 
90.862   5.50000000e+01 
90.826   6.10000000e+01 
90.790   6.20000000e+01 
90.754   5.00000000e+01 
90.718   5.20000000e+01 
90.682   4.60000000e+01 
90.646   5.00000000e+01 
90.610   5.10000000e+01 
90.574   6.00000000e+01 
90.538   4.00000000e+01 
90.502   6.30000000e+01 
90.466   5.00000000e+01 
90.430   6.00000000e+01 
90.395   4.90000000e+01 
90.359   4.20000000e+01 
90.323   4.20000000e+01 
90.287   4.50000000e+01 
90.251   4.30000000e+01 
90.215   3.60000000e+01 
90.179   3.10000000e+01 
90.143   5.10000000e+01 
90.107   4.60000000e+01 
90.071   3.80000000e+01 
90.035   2.40000000e+01 
89.999   3.10000000e+01 
89.963   3.20000000e+01 
89.927   3.90000000e+01 
89.891   3.00000000e+01 
89.855   3.60000000e+01 
89.820   3.00000000e+01 
89.784   3.10000000e+01 
89.748   4.20000000e+01 
89.712   3.70000000e+01 
89.676   3.40000000e+01 
89.640   3.20000000e+01 
89.604   2.50000000e+01 
89.568   3.70000000e+01 
89.532   3.60000000e+01 
89.496   3.50000000e+01 
89.460   4.20000000e+01 
89.424   3.40000000e+01 
89.388   3.30000000e+01 
89.352   4.20000000e+01 
89.316   3.80000000e+01 
89.280   3.20000000e+01 
89.245   3.40000000e+01 
89.209   3.10000000e+01 
89.173   3.20000000e+01 
89.137   3.20000000e+01 
89.101   1.80000000e+01 
89.065   4.20000000e+01 
89.029   3.20000000e+01 
88.993   2.90000000e+01 
88.957   3.60000000e+01 
88.921   3.70000000e+01 
88.885   3.70000000e+01 
88.849   3.60000000e+01 
88.813   4.90000000e+01 
88.777   3.80000000e+01 
88.741   4.20000000e+01 
88.705   2.80000000e+01 
88.670   4.10000000e+01 
88.634   3.20000000e+01 
88.598   3.70000000e+01 
88.562   4.50000000e+01 
88.526   3.60000000e+01 
88.490   3.40000000e+01 
88.454   2.80000000e+01 
88.418   3.50000000e+01 
88.382   2.80000000e+01 
88.346   4.60000000e+01 
88.310   2.30000000e+01 
88.274   3.00000000e+01 
88.238   3.90000000e+01 
88.202   2.20000000e+01 
88.166   2.90000000e+01 
88.130   2.50000000e+01 
88.095   3.90000000e+01 
88.059   2.90000000e+01 
88.023   3.10000000e+01 

