EXPERIMENT FILE
Version = 2

[ Experiment Parameters ]
Experiment Description= <none> 
Number_of_Regions_in_Experiment= 1 

Original_File_name= C:\alexesca\data\12072012_Au _4f_New_Annode_200W.xps 
Instrument= HP ESCA West
Date= 12-07-2012
Time=  16:20:31

[ Layer Parameters ]
Layer_Type= XPS

[ Region 1 Parameters ]
Region_Description = Au 4f Dithered Scan                
BEcenter(eV) = 93.000000
BEwidth(eV) = 10.000000
BEstep(eV) = 0.035938
Dwell_Time(sec) = 1.000000
N_o_scans = 1  
N_o_Channels = 278  
Scan_mode = 0  (DITHERED)

[ L= 1 R= 1 ]
BEcenter= 93.000  
BEwidth= -9.955  
Excitation= 1486.600
Time_p_channel= 256.000 
Size= 278
97.977   1.10000000e+02 
97.941   9.60000000e+01 
97.905   1.12000000e+02 
97.870   9.30000000e+01 
97.834   1.26000000e+02 
97.798   7.50000000e+01 
97.762   1.04000000e+02 
97.726   1.03000000e+02 
97.690   9.20000000e+01 
97.654   9.40000000e+01 
97.618   1.19000000e+02 
97.582   9.90000000e+01 
97.546   1.13000000e+02 
97.510   9.20000000e+01 
97.474   1.15000000e+02 
97.438   9.60000000e+01 
97.402   1.18000000e+02 
97.366   1.09000000e+02 
97.330   1.12000000e+02 
97.295   1.07000000e+02 
97.259   1.04000000e+02 
97.223   8.90000000e+01 
97.187   1.16000000e+02 
97.151   1.06000000e+02 
97.115   1.10000000e+02 
97.079   1.04000000e+02 
97.043   1.16000000e+02 
97.007   1.05000000e+02 
96.971   1.19000000e+02 
96.935   1.17000000e+02 
96.899   1.33000000e+02 
96.863   1.19000000e+02 
96.827   1.30000000e+02 
96.791   1.20000000e+02 
96.755   1.11000000e+02 
96.720   1.34000000e+02 
96.684   1.15000000e+02 
96.648   1.32000000e+02 
96.612   1.29000000e+02 
96.576   1.48000000e+02 
96.540   1.29000000e+02 
96.504   1.53000000e+02 
96.468   1.64000000e+02 
96.432   1.59000000e+02 
96.396   1.74000000e+02 
96.360   1.81000000e+02 
96.324   1.58000000e+02 
96.288   1.90000000e+02 
96.252   1.83000000e+02 
96.216   2.20000000e+02 
96.180   2.07000000e+02 
96.145   2.01000000e+02 
96.109   2.20000000e+02 
96.073   2.21000000e+02 
96.037   2.29000000e+02 
96.001   2.65000000e+02 
95.965   2.31000000e+02 
95.929   2.87000000e+02 
95.893   3.05000000e+02 
95.857   3.08000000e+02 
95.821   3.39000000e+02 
95.785   3.31000000e+02 
95.749   3.43000000e+02 
95.713   3.43000000e+02 
95.677   3.74000000e+02 
95.641   3.49000000e+02 
95.605   4.07000000e+02 
95.570   4.05000000e+02 
95.534   4.16000000e+02 
95.498   4.56000000e+02 
95.462   4.34000000e+02 
95.426   4.96000000e+02 
95.390   4.97000000e+02 
95.354   5.13000000e+02 
95.318   5.84000000e+02 
95.282   5.64000000e+02 
95.246   5.16000000e+02 
95.210   5.49000000e+02 
95.174   5.38000000e+02 
95.138   5.40000000e+02 
95.102   5.57000000e+02 
95.066   5.28000000e+02 
95.030   5.04000000e+02 
94.995   5.01000000e+02 
94.959   4.73000000e+02 
94.923   4.90000000e+02 
94.887   4.35000000e+02 
94.851   3.97000000e+02 
94.815   3.94000000e+02 
94.779   3.56000000e+02 
94.743   3.68000000e+02 
94.707   3.18000000e+02 
94.671   3.29000000e+02 
94.635   2.63000000e+02 
94.599   2.62000000e+02 
94.563   2.39000000e+02 
94.527   2.20000000e+02 
94.491   1.94000000e+02 
94.455   1.81000000e+02 
94.420   1.56000000e+02 
94.384   1.79000000e+02 
94.348   1.40000000e+02 
94.312   1.41000000e+02 
94.276   1.37000000e+02 
94.240   1.36000000e+02 
94.204   1.35000000e+02 
94.168   1.29000000e+02 
94.132   1.33000000e+02 
94.096   1.45000000e+02 
94.060   1.29000000e+02 
94.024   1.19000000e+02 
93.988   9.50000000e+01 
93.952   1.15000000e+02 
93.916   1.13000000e+02 
93.880   1.13000000e+02 
93.845   1.18000000e+02 
93.809   1.06000000e+02 
93.773   9.70000000e+01 
93.737   7.80000000e+01 
93.701   1.01000000e+02 
93.665   1.14000000e+02 
93.629   9.90000000e+01 
93.593   1.07000000e+02 
93.557   9.40000000e+01 
93.521   1.10000000e+02 
93.485   1.04000000e+02 
93.449   9.30000000e+01 
93.413   1.01000000e+02 
93.377   1.06000000e+02 
93.341   9.30000000e+01 
93.305   1.17000000e+02 
93.270   1.14000000e+02 
93.234   1.32000000e+02 
93.198   1.26000000e+02 
93.162   1.25000000e+02 
93.126   1.33000000e+02 
93.090   1.27000000e+02 
93.054   9.80000000e+01 
93.018   1.26000000e+02 
92.982   1.30000000e+02 
92.946   1.18000000e+02 
92.910   1.40000000e+02 
92.874   1.48000000e+02 
92.838   1.53000000e+02 
92.802   1.44000000e+02 
92.766   1.42000000e+02 
92.730   1.85000000e+02 
92.695   1.72000000e+02 
92.659   2.03000000e+02 
92.623   1.82000000e+02 
92.587   2.05000000e+02 
92.551   2.36000000e+02 
92.515   2.07000000e+02 
92.479   2.21000000e+02 
92.443   2.33000000e+02 
92.407   2.50000000e+02 
92.371   2.68000000e+02 
92.335   2.72000000e+02 
92.299   3.02000000e+02 
92.263   3.18000000e+02 
92.227   3.09000000e+02 
92.191   3.15000000e+02 
92.155   3.77000000e+02 
92.120   3.56000000e+02 
92.084   3.97000000e+02 
92.048   4.13000000e+02 
92.012   4.37000000e+02 
91.976   4.61000000e+02 
91.940   4.68000000e+02 
91.904   5.20000000e+02 
91.868   5.11000000e+02 
91.832   4.87000000e+02 
91.796   5.46000000e+02 
91.760   5.47000000e+02 
91.724   5.99000000e+02 
91.688   5.72000000e+02 
91.652   6.56000000e+02 
91.616   6.41000000e+02 
91.580   6.26000000e+02 
91.545   6.21000000e+02 
91.509   6.90000000e+02 
91.473   6.69000000e+02 
91.437   6.61000000e+02 
91.401   6.34000000e+02 
91.365   5.64000000e+02 
91.329   6.36000000e+02 
91.293   5.43000000e+02 
91.257   5.92000000e+02 
91.221   5.45000000e+02 
91.185   5.03000000e+02 
91.149   4.51000000e+02 
91.113   4.40000000e+02 
91.077   3.77000000e+02 
91.041   3.65000000e+02 
91.005   3.06000000e+02 
90.970   2.84000000e+02 
90.934   2.64000000e+02 
90.898   2.52000000e+02 
90.862   2.16000000e+02 
90.826   1.95000000e+02 
90.790   1.74000000e+02 
90.754   1.59000000e+02 
90.718   1.42000000e+02 
90.682   1.22000000e+02 
90.646   1.17000000e+02 
90.610   1.06000000e+02 
90.574   9.40000000e+01 
90.538   9.30000000e+01 
90.502   9.60000000e+01 
90.466   7.50000000e+01 
90.430   8.10000000e+01 
90.395   6.50000000e+01 
90.359   7.00000000e+01 
90.323   6.60000000e+01 
90.287   9.60000000e+01 
90.251   7.30000000e+01 
90.215   7.20000000e+01 
90.179   5.30000000e+01 
90.143   5.70000000e+01 
90.107   6.90000000e+01 
90.071   5.80000000e+01 
90.035   5.70000000e+01 
89.999   5.60000000e+01 
89.963   4.30000000e+01 
89.927   6.30000000e+01 
89.891   5.60000000e+01 
89.855   6.40000000e+01 
89.820   4.20000000e+01 
89.784   6.30000000e+01 
89.748   4.00000000e+01 
89.712   5.00000000e+01 
89.676   4.60000000e+01 
89.640   5.70000000e+01 
89.604   5.10000000e+01 
89.568   4.80000000e+01 
89.532   4.60000000e+01 
89.496   5.80000000e+01 
89.460   4.70000000e+01 
89.424   5.00000000e+01 
89.388   3.90000000e+01 
89.352   5.40000000e+01 
89.316   4.70000000e+01 
89.280   3.30000000e+01 
89.245   4.10000000e+01 
89.209   3.10000000e+01 
89.173   4.30000000e+01 
89.137   3.90000000e+01 
89.101   4.00000000e+01 
89.065   4.10000000e+01 
89.029   4.00000000e+01 
88.993   4.00000000e+01 
88.957   4.70000000e+01 
88.921   5.20000000e+01 
88.885   3.70000000e+01 
88.849   5.30000000e+01 
88.813   4.40000000e+01 
88.777   3.40000000e+01 
88.741   3.80000000e+01 
88.705   4.60000000e+01 
88.670   3.60000000e+01 
88.634   4.20000000e+01 
88.598   2.70000000e+01 
88.562   4.10000000e+01 
88.526   3.60000000e+01 
88.490   4.10000000e+01 
88.454   3.90000000e+01 
88.418   3.20000000e+01 
88.382   5.90000000e+01 
88.346   4.00000000e+01 
88.310   4.10000000e+01 
88.274   5.30000000e+01 
88.238   4.60000000e+01 
88.202   5.80000000e+01 
88.166   4.20000000e+01 
88.130   4.30000000e+01 
88.095   3.60000000e+01 
88.059   4.20000000e+01 
88.023   3.30000000e+01 

