EXPERIMENT FILE
Version = 2

[ Experiment Parameters ]
Experiment Description= <none> 
Number_of_Regions_in_Experiment= 1 

Original_File_name= C:\alexesca\data\12182012_Au _4f_PowerSupplyWarmUp_1hr_400W_30deg_57N.xps 
Instrument= HP ESCA West
Date= 12-18-2012
Time=  13:54:31

[ Layer Parameters ]
Layer_Type= XPS

[ Region 1 Parameters ]
Region_Description = Au 4f Dithered Scan                
BEcenter(eV) = 93.000000
BEwidth(eV) = 10.000000
BEstep(eV) = 0.035937
Dwell_Time(sec) = 1.000000
N_o_scans = 1  
N_o_Channels = 278  
Scan_mode = 0  (DITHERED)

[ L= 1 R= 1 ]
BEcenter= 93.000  
BEwidth= -9.955  
Excitation= 1486.600
Time_p_channel= 256.000 
Size= 278
97.977   1.82000000e+02 
97.941   1.72000000e+02 
97.905   1.74000000e+02 
97.870   1.73000000e+02 
97.834   1.75000000e+02 
97.798   1.88000000e+02 
97.762   1.78000000e+02 
97.726   1.76000000e+02 
97.690   1.80000000e+02 
97.654   1.67000000e+02 
97.618   1.73000000e+02 
97.582   1.58000000e+02 
97.546   1.97000000e+02 
97.510   2.19000000e+02 
97.474   1.91000000e+02 
97.438   1.83000000e+02 
97.402   1.79000000e+02 
97.366   2.02000000e+02 
97.330   1.77000000e+02 
97.295   1.80000000e+02 
97.259   1.85000000e+02 
97.223   1.77000000e+02 
97.187   2.02000000e+02 
97.151   1.91000000e+02 
97.115   2.00000000e+02 
97.079   1.93000000e+02 
97.043   1.94000000e+02 
97.007   1.86000000e+02 
96.971   1.93000000e+02 
96.935   1.63000000e+02 
96.899   1.92000000e+02 
96.863   2.19000000e+02 
96.827   1.57000000e+02 
96.791   1.74000000e+02 
96.755   2.12000000e+02 
96.720   1.78000000e+02 
96.684   2.07000000e+02 
96.648   1.73000000e+02 
96.612   1.95000000e+02 
96.576   2.02000000e+02 
96.540   1.92000000e+02 
96.504   2.13000000e+02 
96.468   2.09000000e+02 
96.432   2.04000000e+02 
96.396   1.99000000e+02 
96.360   2.00000000e+02 
96.324   1.96000000e+02 
96.288   2.02000000e+02 
96.252   1.92000000e+02 
96.216   1.97000000e+02 
96.180   1.93000000e+02 
96.145   2.05000000e+02 
96.109   2.02000000e+02 
96.073   2.04000000e+02 
96.037   1.97000000e+02 
96.001   2.11000000e+02 
95.965   2.17000000e+02 
95.929   2.02000000e+02 
95.893   2.22000000e+02 
95.857   2.11000000e+02 
95.821   2.10000000e+02 
95.785   2.00000000e+02 
95.749   2.06000000e+02 
95.713   1.98000000e+02 
95.677   2.15000000e+02 
95.641   2.13000000e+02 
95.605   2.18000000e+02 
95.570   1.98000000e+02 
95.534   2.15000000e+02 
95.498   2.23000000e+02 
95.462   2.24000000e+02 
95.426   2.27000000e+02 
95.390   2.38000000e+02 
95.354   2.24000000e+02 
95.318   2.26000000e+02 
95.282   2.40000000e+02 
95.246   2.55000000e+02 
95.210   2.22000000e+02 
95.174   2.38000000e+02 
95.138   2.60000000e+02 
95.102   2.57000000e+02 
95.066   2.70000000e+02 
95.030   2.70000000e+02 
94.995   2.69000000e+02 
94.959   2.63000000e+02 
94.923   3.03000000e+02 
94.887   3.27000000e+02 
94.851   2.97000000e+02 
94.815   3.41000000e+02 
94.779   3.31000000e+02 
94.743   3.57000000e+02 
94.707   3.60000000e+02 
94.671   3.81000000e+02 
94.635   4.01000000e+02 
94.599   4.02000000e+02 
94.563   3.96000000e+02 
94.527   4.61000000e+02 
94.491   4.84000000e+02 
94.455   5.07000000e+02 
94.420   5.01000000e+02 
94.384   5.26000000e+02 
94.348   5.25000000e+02 
94.312   5.67000000e+02 
94.276   5.97000000e+02 
94.240   6.75000000e+02 
94.204   6.87000000e+02 
94.168   6.52000000e+02 
94.132   7.72000000e+02 
94.096   7.54000000e+02 
94.060   7.67000000e+02 
94.024   8.07000000e+02 
93.988   8.20000000e+02 
93.952   8.32000000e+02 
93.916   8.86000000e+02 
93.880   9.13000000e+02 
93.845   9.43000000e+02 
93.809   1.04400000e+03 
93.773   1.00600000e+03 
93.737   1.05500000e+03 
93.701   1.06800000e+03 
93.665   1.04600000e+03 
93.629   1.01500000e+03 
93.593   1.00700000e+03 
93.557   1.12400000e+03 
93.521   1.10100000e+03 
93.485   1.09300000e+03 
93.449   1.00600000e+03 
93.413   1.02100000e+03 
93.377   9.49000000e+02 
93.341   9.72000000e+02 
93.305   9.36000000e+02 
93.270   8.62000000e+02 
93.234   8.34000000e+02 
93.198   7.05000000e+02 
93.162   6.71000000e+02 
93.126   6.26000000e+02 
93.090   6.14000000e+02 
93.054   5.12000000e+02 
93.018   5.05000000e+02 
92.982   5.00000000e+02 
92.946   3.93000000e+02 
92.910   3.84000000e+02 
92.874   4.12000000e+02 
92.838   3.45000000e+02 
92.802   3.29000000e+02 
92.766   3.08000000e+02 
92.730   2.64000000e+02 
92.695   2.63000000e+02 
92.659   2.64000000e+02 
92.623   2.44000000e+02 
92.587   2.43000000e+02 
92.551   2.34000000e+02 
92.515   2.48000000e+02 
92.479   2.31000000e+02 
92.443   2.23000000e+02 
92.407   2.42000000e+02 
92.371   2.16000000e+02 
92.335   2.31000000e+02 
92.299   2.08000000e+02 
92.263   1.87000000e+02 
92.227   1.97000000e+02 
92.191   2.13000000e+02 
92.155   2.22000000e+02 
92.120   2.04000000e+02 
92.084   1.89000000e+02 
92.048   2.14000000e+02 
92.012   2.07000000e+02 
91.976   2.20000000e+02 
91.940   2.10000000e+02 
91.904   1.95000000e+02 
91.868   2.03000000e+02 
91.832   2.15000000e+02 
91.796   2.23000000e+02 
91.760   2.12000000e+02 
91.724   2.37000000e+02 
91.688   2.33000000e+02 
91.652   2.66000000e+02 
91.616   2.31000000e+02 
91.580   2.34000000e+02 
91.545   2.73000000e+02 
91.509   2.21000000e+02 
91.473   2.74000000e+02 
91.437   2.79000000e+02 
91.401   2.71000000e+02 
91.365   2.75000000e+02 
91.329   3.11000000e+02 
91.293   3.31000000e+02 
91.257   3.13000000e+02 
91.221   3.47000000e+02 
91.185   3.29000000e+02 
91.149   3.41000000e+02 
91.113   4.03000000e+02 
91.077   3.54000000e+02 
91.041   4.26000000e+02 
91.005   4.47000000e+02 
90.970   4.58000000e+02 
90.934   4.57000000e+02 
90.898   4.41000000e+02 
90.862   5.53000000e+02 
90.826   5.45000000e+02 
90.790   6.04000000e+02 
90.754   5.60000000e+02 
90.718   6.31000000e+02 
90.682   6.61000000e+02 
90.646   6.44000000e+02 
90.610   7.33000000e+02 
90.574   6.45000000e+02 
90.538   7.29000000e+02 
90.502   8.29000000e+02 
90.466   8.17000000e+02 
90.430   8.32000000e+02 
90.395   8.72000000e+02 
90.359   8.94000000e+02 
90.323   9.65000000e+02 
90.287   1.01600000e+03 
90.251   1.02600000e+03 
90.215   9.72000000e+02 
90.179   1.08600000e+03 
90.143   1.09200000e+03 
90.107   1.16600000e+03 
90.071   1.12100000e+03 
90.035   1.12100000e+03 
89.999   1.14300000e+03 
89.963   1.14200000e+03 
89.927   1.19400000e+03 
89.891   1.24500000e+03 
89.855   1.10800000e+03 
89.820   1.14700000e+03 
89.784   1.17600000e+03 
89.748   1.12000000e+03 
89.712   1.03600000e+03 
89.676   1.00000000e+03 
89.640   9.12000000e+02 
89.604   9.12000000e+02 
89.568   8.98000000e+02 
89.532   8.02000000e+02 
89.496   6.98000000e+02 
89.460   6.57000000e+02 
89.424   6.06000000e+02 
89.388   5.14000000e+02 
89.352   4.57000000e+02 
89.316   4.08000000e+02 
89.280   3.80000000e+02 
89.245   3.21000000e+02 
89.209   3.22000000e+02 
89.173   3.03000000e+02 
89.137   2.74000000e+02 
89.101   2.51000000e+02 
89.065   2.20000000e+02 
89.029   2.16000000e+02 
88.993   1.89000000e+02 
88.957   1.79000000e+02 
88.921   1.46000000e+02 
88.885   1.76000000e+02 
88.849   1.43000000e+02 
88.813   1.39000000e+02 
88.777   1.50000000e+02 
88.741   1.53000000e+02 
88.705   1.44000000e+02 
88.670   1.27000000e+02 
88.634   1.23000000e+02 
88.598   1.22000000e+02 
88.562   9.80000000e+01 
88.526   1.04000000e+02 
88.490   1.15000000e+02 
88.454   1.04000000e+02 
88.418   1.08000000e+02 
88.382   1.08000000e+02 
88.346   9.70000000e+01 
88.310   1.11000000e+02 
88.274   1.11000000e+02 
88.238   1.03000000e+02 
88.202   7.20000000e+01 
88.166   9.80000000e+01 
88.130   7.90000000e+01 
88.095   9.00000000e+01 
88.059   9.90000000e+01 
88.023   7.50000000e+01 

