EXPERIMENT FILE
Version = 2

[ Experiment Parameters ]
Experiment Description= <none> 
Number_of_Regions_in_Experiment= 1 

Original_File_name= C:\alexesca\data\129ThetaNeg25.xps 
Instrument= HP ESCA West
Date= 01-29-2013
Time=  12:20:54

[ Layer Parameters ]
Layer_Type= XPS

[ Region 1 Parameters ]
Region_Description = Au 4f Dithered 94eV Center 9.2eV Width
BEcenter(eV) = 94.000000
BEwidth(eV) = 9.200000
BEstep(eV) = 0.035937
Dwell_Time(sec) = 1.000000
N_o_scans = 1  
N_o_Channels = 256  
Scan_mode = 0  (DITHERED)

[ L= 1 R= 1 ]
BEcenter= 94.000  
BEwidth= -9.164  
Excitation= 1486.600
Time_p_channel= 256.000 
Size= 256
98.582   2.81000000e+02 
98.546   2.79000000e+02 
98.510   2.86000000e+02 
98.474   2.94000000e+02 
98.438   3.11000000e+02 
98.402   3.09000000e+02 
98.366   2.98000000e+02 
98.330   2.86000000e+02 
98.295   3.01000000e+02 
98.259   3.03000000e+02 
98.223   3.06000000e+02 
98.187   2.94000000e+02 
98.151   3.15000000e+02 
98.115   2.79000000e+02 
98.079   3.14000000e+02 
98.043   2.72000000e+02 
98.007   2.88000000e+02 
97.971   2.87000000e+02 
97.935   2.90000000e+02 
97.899   2.93000000e+02 
97.863   3.09000000e+02 
97.827   2.79000000e+02 
97.791   2.90000000e+02 
97.755   3.12000000e+02 
97.720   2.92000000e+02 
97.684   3.05000000e+02 
97.648   3.13000000e+02 
97.612   3.29000000e+02 
97.576   3.43000000e+02 
97.540   3.07000000e+02 
97.504   3.14000000e+02 
97.468   3.33000000e+02 
97.432   3.30000000e+02 
97.396   2.86000000e+02 
97.360   2.99000000e+02 
97.324   3.49000000e+02 
97.288   3.15000000e+02 
97.252   3.34000000e+02 
97.216   3.49000000e+02 
97.180   3.57000000e+02 
97.145   3.22000000e+02 
97.109   3.49000000e+02 
97.073   3.43000000e+02 
97.037   3.70000000e+02 
97.001   3.59000000e+02 
96.965   3.80000000e+02 
96.929   3.79000000e+02 
96.893   3.98000000e+02 
96.857   4.12000000e+02 
96.821   4.10000000e+02 
96.785   4.45000000e+02 
96.749   4.13000000e+02 
96.713   4.62000000e+02 
96.677   5.00000000e+02 
96.641   5.13000000e+02 
96.605   5.12000000e+02 
96.570   5.21000000e+02 
96.534   5.73000000e+02 
96.498   6.14000000e+02 
96.462   6.26000000e+02 
96.426   6.34000000e+02 
96.390   7.03000000e+02 
96.354   7.27000000e+02 
96.318   7.47000000e+02 
96.282   8.08000000e+02 
96.246   8.68000000e+02 
96.210   8.58000000e+02 
96.174   1.00800000e+03 
96.138   9.98000000e+02 
96.102   1.08000000e+03 
96.066   1.10500000e+03 
96.030   1.10700000e+03 
95.995   1.16800000e+03 
95.959   1.25800000e+03 
95.923   1.30700000e+03 
95.887   1.44700000e+03 
95.851   1.42900000e+03 
95.815   1.50200000e+03 
95.779   1.55200000e+03 
95.743   1.56900000e+03 
95.707   1.56600000e+03 
95.671   1.58800000e+03 
95.635   1.59700000e+03 
95.599   1.58700000e+03 
95.563   1.59300000e+03 
95.527   1.53400000e+03 
95.491   1.48100000e+03 
95.455   1.44700000e+03 
95.420   1.33600000e+03 
95.384   1.36600000e+03 
95.348   1.30900000e+03 
95.312   1.19900000e+03 
95.276   1.10200000e+03 
95.240   1.02900000e+03 
95.204   9.87000000e+02 
95.168   9.37000000e+02 
95.132   8.08000000e+02 
95.096   7.23000000e+02 
95.060   7.54000000e+02 
95.024   6.84000000e+02 
94.988   6.58000000e+02 
94.952   6.01000000e+02 
94.916   5.49000000e+02 
94.880   5.36000000e+02 
94.845   5.07000000e+02 
94.809   4.70000000e+02 
94.773   4.63000000e+02 
94.737   4.22000000e+02 
94.701   4.41000000e+02 
94.665   3.86000000e+02 
94.629   3.44000000e+02 
94.593   3.87000000e+02 
94.557   3.71000000e+02 
94.521   3.68000000e+02 
94.485   3.76000000e+02 
94.449   3.39000000e+02 
94.413   3.30000000e+02 
94.377   3.23000000e+02 
94.341   3.07000000e+02 
94.305   3.28000000e+02 
94.270   2.78000000e+02 
94.234   3.16000000e+02 
94.198   2.54000000e+02 
94.162   2.84000000e+02 
94.126   3.13000000e+02 
94.090   2.66000000e+02 
94.054   2.65000000e+02 
94.018   2.90000000e+02 
93.982   2.80000000e+02 
93.946   3.01000000e+02 
93.910   2.64000000e+02 
93.874   2.94000000e+02 
93.838   3.20000000e+02 
93.802   2.66000000e+02 
93.766   2.61000000e+02 
93.730   3.08000000e+02 
93.695   2.69000000e+02 
93.659   3.40000000e+02 
93.623   2.83000000e+02 
93.587   3.00000000e+02 
93.551   2.95000000e+02 
93.515   3.30000000e+02 
93.479   3.15000000e+02 
93.443   3.55000000e+02 
93.407   3.52000000e+02 
93.371   3.36000000e+02 
93.335   3.34000000e+02 
93.299   3.91000000e+02 
93.263   3.72000000e+02 
93.227   3.85000000e+02 
93.191   3.85000000e+02 
93.155   4.07000000e+02 
93.120   4.07000000e+02 
93.084   4.47000000e+02 
93.048   4.39000000e+02 
93.012   4.60000000e+02 
92.976   4.54000000e+02 
92.940   5.04000000e+02 
92.904   5.12000000e+02 
92.868   5.21000000e+02 
92.832   6.40000000e+02 
92.796   6.34000000e+02 
92.760   6.74000000e+02 
92.724   8.01000000e+02 
92.688   7.43000000e+02 
92.652   7.54000000e+02 
92.616   8.22000000e+02 
92.580   8.93000000e+02 
92.545   9.56000000e+02 
92.509   9.66000000e+02 
92.473   1.03600000e+03 
92.437   1.10100000e+03 
92.401   1.24400000e+03 
92.365   1.28300000e+03 
92.329   1.34700000e+03 
92.293   1.48600000e+03 
92.257   1.60800000e+03 
92.221   1.57300000e+03 
92.185   1.61900000e+03 
92.149   1.73500000e+03 
92.113   1.81000000e+03 
92.077   1.81200000e+03 
92.041   1.88000000e+03 
92.005   1.88500000e+03 
91.970   1.96500000e+03 
91.934   1.95700000e+03 
91.898   2.01600000e+03 
91.862   1.85900000e+03 
91.826   1.82700000e+03 
91.790   1.75900000e+03 
91.754   1.73100000e+03 
91.718   1.68000000e+03 
91.682   1.53100000e+03 
91.646   1.43800000e+03 
91.610   1.36700000e+03 
91.574   1.30300000e+03 
91.538   1.18900000e+03 
91.502   1.07800000e+03 
91.466   9.67000000e+02 
91.430   9.25000000e+02 
91.395   8.41000000e+02 
91.359   7.97000000e+02 
91.323   7.11000000e+02 
91.287   6.21000000e+02 
91.251   5.33000000e+02 
91.215   5.16000000e+02 
91.179   5.20000000e+02 
91.143   4.69000000e+02 
91.107   4.27000000e+02 
91.071   3.77000000e+02 
91.035   3.54000000e+02 
90.999   3.12000000e+02 
90.963   3.21000000e+02 
90.927   2.92000000e+02 
90.891   2.94000000e+02 
90.855   2.55000000e+02 
90.820   2.70000000e+02 
90.784   2.29000000e+02 
90.748   2.30000000e+02 
90.712   2.14000000e+02 
90.676   2.00000000e+02 
90.640   2.18000000e+02 
90.604   2.07000000e+02 
90.568   1.95000000e+02 
90.532   1.91000000e+02 
90.496   2.05000000e+02 
90.460   2.18000000e+02 
90.424   1.85000000e+02 
90.388   1.62000000e+02 
90.352   1.72000000e+02 
90.316   1.52000000e+02 
90.280   1.57000000e+02 
90.245   1.49000000e+02 
90.209   1.65000000e+02 
90.173   1.68000000e+02 
90.137   1.70000000e+02 
90.101   1.67000000e+02 
90.065   1.57000000e+02 
90.029   1.61000000e+02 
89.993   1.76000000e+02 
89.957   1.70000000e+02 
89.921   1.51000000e+02 
89.885   1.50000000e+02 
89.849   1.68000000e+02 
89.813   1.28000000e+02 
89.777   1.55000000e+02 
89.741   1.35000000e+02 
89.705   1.47000000e+02 
89.670   1.59000000e+02 
89.634   1.39000000e+02 
89.598   1.33000000e+02 
89.562   1.49000000e+02 
89.526   1.62000000e+02 
89.490   1.32000000e+02 
89.454   1.58000000e+02 
89.418   1.30000000e+02 

