EXPERIMENT FILE
Version = 2

[ Experiment Parameters ]
Experiment Description= two 
Number_of_Regions_in_Experiment= 10 

Original_File_name= C:\alexesca\data\Noise]\Batch2_20Cu854_111414.xps 
Instrument= HP ESCA West
Date= 11-17-2014
Time=  15:02:55

[ Layer Parameters ]
Layer_Type= XPS

[ Region 1 Parameters ]
Region_Description = Fixed854eV                         
BEcenter(eV) = 854.000000
BEwidth(eV) = 9.200000
BEstep(eV) = 0.035937
Dwell_Time(sec) = 1.000000
N_o_scans = 1000  
N_o_Channels = 256  
Scan_mode = 1  (FIXED)

[ Region 2 Parameters ]
Region_Description = Fixed854eV                         
BEcenter(eV) = 854.000000
BEwidth(eV) = 9.200000
BEstep(eV) = 0.035937
Dwell_Time(sec) = 1.000000
N_o_scans = 1000  
N_o_Channels = 256  
Scan_mode = 1  (FIXED)

[ Region 3 Parameters ]
Region_Description = Fixed854eV                         
BEcenter(eV) = 854.000000
BEwidth(eV) = 9.200000
BEstep(eV) = 0.035937
Dwell_Time(sec) = 1.000000
N_o_scans = 1000  
N_o_Channels = 256  
Scan_mode = 1  (FIXED)

[ Region 4 Parameters ]
Region_Description = Fixed854eV                         
BEcenter(eV) = 854.000000
BEwidth(eV) = 9.200000
BEstep(eV) = 0.035937
Dwell_Time(sec) = 1.000000
N_o_scans = 1000  
N_o_Channels = 256  
Scan_mode = 1  (FIXED)

[ Region 5 Parameters ]
Region_Description = Fixed854eV                         
BEcenter(eV) = 854.000000
BEwidth(eV) = 9.200000
BEstep(eV) = 0.035937
Dwell_Time(sec) = 1.000000
N_o_scans = 1000  
N_o_Channels = 256  
Scan_mode = 1  (FIXED)

[ Region 6 Parameters ]
Region_Description = Fixed854eV                         
BEcenter(eV) = 854.000000
BEwidth(eV) = 9.200000
BEstep(eV) = 0.035937
Dwell_Time(sec) = 1.000000
N_o_scans = 1000  
N_o_Channels = 256  
Scan_mode = 1  (FIXED)

[ Region 7 Parameters ]
Region_Description = Fixed854eV                         
BEcenter(eV) = 854.000000
BEwidth(eV) = 9.200000
BEstep(eV) = 0.035937
Dwell_Time(sec) = 1.000000
N_o_scans = 1000  
N_o_Channels = 256  
Scan_mode = 1  (FIXED)

[ Region 8 Parameters ]
Region_Description = Fixed854eV                         
BEcenter(eV) = 854.000000
BEwidth(eV) = 9.200000
BEstep(eV) = 0.035937
Dwell_Time(sec) = 1.000000
N_o_scans = 1000  
N_o_Channels = 256  
Scan_mode = 1  (FIXED)

[ Region 9 Parameters ]
Region_Description = Fixed854eV                         
BEcenter(eV) = 854.000000
BEwidth(eV) = 9.200000
BEstep(eV) = 0.035937
Dwell_Time(sec) = 1.000000
N_o_scans = 1000  
N_o_Channels = 256  
Scan_mode = 1  (FIXED)

[ Region 10 Parameters ]
Region_Description = Fixed854eV                         
BEcenter(eV) = 854.000000
BEwidth(eV) = 9.200000
BEstep(eV) = 0.035937
Dwell_Time(sec) = 1.000000
N_o_scans = 1000  
N_o_Channels = 256  
Scan_mode = 1  (FIXED)

[ L= 1 R= 1 ]
BEcenter= 854.000 
BEwidth= -9.200  
Excitation= 1486.600
Time_p_channel= 1000.000
Size= 256
858.600  1.64600000e+03 
858.564  1.67600000e+03 
858.528  1.69600000e+03 
858.492  1.63200000e+03 
858.456  1.75100000e+03 
858.420  1.77700000e+03 
858.384  1.78600000e+03 
858.347  1.78800000e+03 
858.311  1.71800000e+03 
858.275  1.73300000e+03 
858.239  1.67200000e+03 
858.203  1.80000000e+03 
858.167  1.72300000e+03 
858.131  1.76100000e+03 
858.095  1.71800000e+03 
858.059  1.80900000e+03 
858.023  1.78400000e+03 
857.987  1.79400000e+03 
857.951  1.80800000e+03 
857.915  1.78100000e+03 
857.878  1.80200000e+03 
857.842  1.87400000e+03 
857.806  1.85500000e+03 
857.770  1.83800000e+03 
857.734  1.87000000e+03 
857.698  1.81300000e+03 
857.662  1.83700000e+03 
857.626  1.83400000e+03 
857.590  1.83400000e+03 
857.554  1.90600000e+03 
857.518  1.88600000e+03 
857.482  1.90400000e+03 
857.445  1.98600000e+03 
857.409  1.89200000e+03 
857.373  1.93300000e+03 
857.337  1.82300000e+03 
857.301  1.99100000e+03 
857.265  1.99500000e+03 
857.229  1.94800000e+03 
857.193  1.99500000e+03 
857.157  2.00000000e+03 
857.121  1.97000000e+03 
857.085  1.97700000e+03 
857.049  1.92700000e+03 
857.013  1.97000000e+03 
856.976  1.94500000e+03 
856.940  2.01700000e+03 
856.904  2.06200000e+03 
856.868  2.02800000e+03 
856.832  2.02900000e+03 
856.796  2.07200000e+03 
856.760  2.09000000e+03 
856.724  1.99000000e+03 
856.688  2.06400000e+03 
856.652  2.05100000e+03 
856.616  2.03800000e+03 
856.580  1.99400000e+03 
856.544  2.04700000e+03 
856.507  2.05700000e+03 
856.471  2.07100000e+03 
856.435  2.10400000e+03 
856.399  2.10600000e+03 
856.363  2.10300000e+03 
856.327  2.12100000e+03 
856.291  2.10300000e+03 
856.255  2.04800000e+03 
856.219  2.07000000e+03 
856.183  2.06000000e+03 
856.147  2.08500000e+03 
856.111  2.12500000e+03 
856.075  2.12200000e+03 
856.038  2.10000000e+03 
856.002  2.05300000e+03 
855.966  2.18800000e+03 
855.930  2.17800000e+03 
855.894  2.19300000e+03 
855.858  2.14000000e+03 
855.822  2.21500000e+03 
855.786  2.22300000e+03 
855.750  2.23400000e+03 
855.714  2.15900000e+03 
855.678  2.19300000e+03 
855.642  2.24200000e+03 
855.605  2.17100000e+03 
855.569  2.20900000e+03 
855.533  2.27200000e+03 
855.497  2.19000000e+03 
855.461  2.22600000e+03 
855.425  2.18300000e+03 
855.389  2.19500000e+03 
855.353  2.18200000e+03 
855.317  2.16900000e+03 
855.281  2.10800000e+03 
855.245  2.11800000e+03 
855.209  2.05700000e+03 
855.173  2.03300000e+03 
855.136  2.09800000e+03 
855.100  2.03600000e+03 
855.064  2.16600000e+03 
855.028  2.10700000e+03 
854.992  2.04800000e+03 
854.956  2.02500000e+03 
854.920  2.12600000e+03 
854.884  2.14500000e+03 
854.848  2.06400000e+03 
854.812  2.07700000e+03 
854.776  1.99500000e+03 
854.740  2.07100000e+03 
854.704  1.97000000e+03 
854.667  2.02800000e+03 
854.631  1.93200000e+03 
854.595  2.05300000e+03 
854.559  1.94300000e+03 
854.523  1.89800000e+03 
854.487  1.92600000e+03 
854.451  2.08800000e+03 
854.415  1.94300000e+03 
854.379  2.01600000e+03 
854.343  2.01500000e+03 
854.307  2.06500000e+03 
854.271  2.01200000e+03 
854.235  1.94100000e+03 
854.198  1.98100000e+03 
854.162  1.94100000e+03 
854.126  1.98600000e+03 
854.090  1.98300000e+03 
854.054  1.99100000e+03 
854.018  1.96000000e+03 
853.982  1.93200000e+03 
853.946  1.86100000e+03 
853.910  1.81300000e+03 
853.874  1.93400000e+03 
853.838  1.84600000e+03 
853.802  1.90800000e+03 
853.765  1.83500000e+03 
853.729  1.94100000e+03 
853.693  1.90400000e+03 
853.657  1.78300000e+03 
853.621  1.86400000e+03 
853.585  1.82100000e+03 
853.549  1.84200000e+03 
853.513  1.82300000e+03 
853.477  1.87900000e+03 
853.441  1.85500000e+03 
853.405  1.85400000e+03 
853.369  1.82300000e+03 
853.333  1.90200000e+03 
853.296  1.87600000e+03 
853.260  1.82000000e+03 
853.224  1.79000000e+03 
853.188  1.78400000e+03 
853.152  1.70500000e+03 
853.116  1.75500000e+03 
853.080  1.80300000e+03 
853.044  1.78200000e+03 
853.008  1.81500000e+03 
852.972  1.77600000e+03 
852.936  1.71300000e+03 
852.900  1.79700000e+03 
852.864  1.75000000e+03 
852.827  1.82200000e+03 
852.791  1.69900000e+03 
852.755  1.72000000e+03 
852.719  1.80900000e+03 
852.683  1.73600000e+03 
852.647  1.70700000e+03 
852.611  1.72100000e+03 
852.575  1.72600000e+03 
852.539  1.63800000e+03 
852.503  1.63600000e+03 
852.467  1.64400000e+03 
852.431  1.66000000e+03 
852.395  1.72300000e+03 
852.358  1.77200000e+03 
852.322  1.64900000e+03 
852.286  1.73500000e+03 
852.250  1.69400000e+03 
852.214  1.81800000e+03 
852.178  1.72200000e+03 
852.142  1.66800000e+03 
852.106  1.80200000e+03 
852.070  1.71500000e+03 
852.034  1.65000000e+03 
851.998  1.72600000e+03 
851.962  1.67500000e+03 
851.925  1.65900000e+03 
851.889  1.66700000e+03 
851.853  1.67200000e+03 
851.817  1.64800000e+03 
851.781  1.73000000e+03 
851.745  1.61900000e+03 
851.709  1.63000000e+03 
851.673  1.60900000e+03 
851.637  1.63000000e+03 
851.601  1.59000000e+03 
851.565  1.61100000e+03 
851.529  1.60200000e+03 
851.493  1.59600000e+03 
851.456  1.56100000e+03 
851.420  1.59300000e+03 
851.384  1.54700000e+03 
851.348  1.60400000e+03 
851.312  1.49900000e+03 
851.276  1.49700000e+03 
851.240  1.50500000e+03 
851.204  1.52500000e+03 
851.168  1.52500000e+03 
851.132  1.51200000e+03 
851.096  1.44500000e+03 
851.060  1.50400000e+03 
851.024  1.40600000e+03 
850.987  1.47600000e+03 
850.951  1.45100000e+03 
850.915  1.42200000e+03 
850.879  1.40900000e+03 
850.843  1.46700000e+03 
850.807  1.41600000e+03 
850.771  1.42700000e+03 
850.735  1.52400000e+03 
850.699  1.43500000e+03 
850.663  1.33500000e+03 
850.627  1.38900000e+03 
850.591  1.40500000e+03 
850.555  1.34000000e+03 
850.518  1.29200000e+03 
850.482  1.37900000e+03 
850.446  1.41200000e+03 
850.410  1.32900000e+03 
850.374  1.42200000e+03 
850.338  1.33500000e+03 
850.302  1.35900000e+03 
850.266  1.37800000e+03 
850.230  1.28300000e+03 
850.194  1.30700000e+03 
850.158  1.31700000e+03 
850.122  1.35400000e+03 
850.085  1.24400000e+03 
850.049  1.38700000e+03 
850.013  1.28200000e+03 
849.977  1.29100000e+03 
849.941  1.28400000e+03 
849.905  1.27700000e+03 
849.869  1.25200000e+03 
849.833  1.10800000e+03 
849.797  1.21600000e+03 
849.761  1.04500000e+03 
849.725  1.03300000e+03 
849.689  1.10100000e+03 
849.653  8.65000000e+02 
849.616  1.00800000e+03 
849.580  9.43000000e+02 
849.544  7.43000000e+02 
849.508  6.34000000e+02 
849.472  3.54000000e+02 
849.436  0.00000000e+00 
849.400  0.00000000e+00 

[ L= 1 R= 2 ]
BEcenter= 854.000 
BEwidth= -9.200  
Excitation= 1486.600
Time_p_channel= 1000.000
Size= 256
858.600  1.55600000e+03 
858.564  1.71700000e+03 
858.528  1.70000000e+03 
858.492  1.72900000e+03 
858.456  1.73100000e+03 
858.420  1.75100000e+03 
858.384  1.69400000e+03 
858.347  1.78700000e+03 
858.311  1.83000000e+03 
858.275  1.82200000e+03 
858.239  1.83700000e+03 
858.203  1.81900000e+03 
858.167  1.69600000e+03 
858.131  1.84300000e+03 
858.095  1.73300000e+03 
858.059  1.81400000e+03 
858.023  1.83900000e+03 
857.987  1.77600000e+03 
857.951  1.82200000e+03 
857.915  1.78200000e+03 
857.878  1.80900000e+03 
857.842  1.73700000e+03 
857.806  1.81700000e+03 
857.770  1.75000000e+03 
857.734  1.80400000e+03 
857.698  1.86700000e+03 
857.662  1.80000000e+03 
857.626  1.83900000e+03 
857.590  1.83100000e+03 
857.554  1.84400000e+03 
857.518  1.78400000e+03 
857.482  1.92500000e+03 
857.445  1.80600000e+03 
857.409  1.89400000e+03 
857.373  1.86800000e+03 
857.337  1.92900000e+03 
857.301  1.91500000e+03 
857.265  1.93000000e+03 
857.229  1.97000000e+03 
857.193  1.95100000e+03 
857.157  1.97900000e+03 
857.121  1.98800000e+03 
857.085  2.00100000e+03 
857.049  1.89000000e+03 
857.013  1.96200000e+03 
856.976  2.00600000e+03 
856.940  1.99700000e+03 
856.904  2.06300000e+03 
856.868  2.08900000e+03 
856.832  2.03500000e+03 
856.796  1.98900000e+03 
856.760  2.03400000e+03 
856.724  2.05500000e+03 
856.688  2.01300000e+03 
856.652  2.03100000e+03 
856.616  2.07900000e+03 
856.580  2.10500000e+03 
856.544  2.03500000e+03 
856.507  2.06600000e+03 
856.471  2.06900000e+03 
856.435  2.09000000e+03 
856.399  2.13800000e+03 
856.363  2.08400000e+03 
856.327  2.09100000e+03 
856.291  2.15600000e+03 
856.255  2.05600000e+03 
856.219  2.03300000e+03 
856.183  2.12600000e+03 
856.147  2.05600000e+03 
856.111  2.09100000e+03 
856.075  2.15000000e+03 
856.038  2.18100000e+03 
856.002  2.06600000e+03 
855.966  2.18300000e+03 
855.930  2.14700000e+03 
855.894  2.08300000e+03 
855.858  2.22200000e+03 
855.822  2.19200000e+03 
855.786  2.12300000e+03 
855.750  2.17400000e+03 
855.714  2.11600000e+03 
855.678  2.16800000e+03 
855.642  2.19900000e+03 
855.605  2.18200000e+03 
855.569  2.18700000e+03 
855.533  2.30000000e+03 
855.497  2.16600000e+03 
855.461  2.29500000e+03 
855.425  2.22400000e+03 
855.389  2.19900000e+03 
855.353  2.17100000e+03 
855.317  2.16200000e+03 
855.281  2.15500000e+03 
855.245  2.10300000e+03 
855.209  2.00400000e+03 
855.173  2.07800000e+03 
855.136  2.22600000e+03 
855.100  2.16500000e+03 
855.064  2.02900000e+03 
855.028  2.12100000e+03 
854.992  2.07900000e+03 
854.956  2.14100000e+03 
854.920  2.08800000e+03 
854.884  2.02800000e+03 
854.848  2.05200000e+03 
854.812  2.02000000e+03 
854.776  2.00900000e+03 
854.740  2.14900000e+03 
854.704  1.97800000e+03 
854.667  2.06800000e+03 
854.631  1.96600000e+03 
854.595  1.97600000e+03 
854.559  1.91900000e+03 
854.523  1.94600000e+03 
854.487  1.93900000e+03 
854.451  1.96500000e+03 
854.415  1.94500000e+03 
854.379  1.99500000e+03 
854.343  1.94500000e+03 
854.307  1.95000000e+03 
854.271  1.99600000e+03 
854.235  1.92900000e+03 
854.198  1.88100000e+03 
854.162  1.94600000e+03 
854.126  1.92700000e+03 
854.090  2.01400000e+03 
854.054  1.90600000e+03 
854.018  1.97400000e+03 
853.982  1.86900000e+03 
853.946  1.86000000e+03 
853.910  1.88600000e+03 
853.874  1.96000000e+03 
853.838  1.92400000e+03 
853.802  1.94100000e+03 
853.765  1.90400000e+03 
853.729  1.94800000e+03 
853.693  1.88000000e+03 
853.657  1.90300000e+03 
853.621  1.86900000e+03 
853.585  1.94900000e+03 
853.549  1.87600000e+03 
853.513  1.82800000e+03 
853.477  1.86400000e+03 
853.441  1.90600000e+03 
853.405  1.75600000e+03 
853.369  1.87500000e+03 
853.333  1.85600000e+03 
853.296  1.82400000e+03 
853.260  1.83700000e+03 
853.224  1.82300000e+03 
853.188  1.84300000e+03 
853.152  1.77000000e+03 
853.116  1.79100000e+03 
853.080  1.78500000e+03 
853.044  1.82400000e+03 
853.008  1.80400000e+03 
852.972  1.79600000e+03 
852.936  1.74100000e+03 
852.900  1.73500000e+03 
852.864  1.73800000e+03 
852.827  1.80400000e+03 
852.791  1.69500000e+03 
852.755  1.71000000e+03 
852.719  1.70800000e+03 
852.683  1.75300000e+03 
852.647  1.74200000e+03 
852.611  1.69200000e+03 
852.575  1.67400000e+03 
852.539  1.71700000e+03 
852.503  1.66600000e+03 
852.467  1.64500000e+03 
852.431  1.66400000e+03 
852.395  1.71400000e+03 
852.358  1.70200000e+03 
852.322  1.70200000e+03 
852.286  1.68300000e+03 
852.250  1.77800000e+03 
852.214  1.67100000e+03 
852.178  1.65200000e+03 
852.142  1.79100000e+03 
852.106  1.81500000e+03 
852.070  1.69200000e+03 
852.034  1.78500000e+03 
851.998  1.69000000e+03 
851.962  1.67600000e+03 
851.925  1.69500000e+03 
851.889  1.61300000e+03 
851.853  1.57100000e+03 
851.817  1.66300000e+03 
851.781  1.58200000e+03 
851.745  1.66400000e+03 
851.709  1.63400000e+03 
851.673  1.57700000e+03 
851.637  1.68300000e+03 
851.601  1.55000000e+03 
851.565  1.61600000e+03 
851.529  1.57600000e+03 
851.493  1.56900000e+03 
851.456  1.56800000e+03 
851.420  1.54400000e+03 
851.384  1.49500000e+03 
851.348  1.58400000e+03 
851.312  1.53500000e+03 
851.276  1.52600000e+03 
851.240  1.51700000e+03 
851.204  1.48600000e+03 
851.168  1.55700000e+03 
851.132  1.51800000e+03 
851.096  1.51300000e+03 
851.060  1.48000000e+03 
851.024  1.43400000e+03 
850.987  1.45200000e+03 
850.951  1.45500000e+03 
850.915  1.41200000e+03 
850.879  1.38400000e+03 
850.843  1.40700000e+03 
850.807  1.46800000e+03 
850.771  1.43200000e+03 
850.735  1.39600000e+03 
850.699  1.43900000e+03 
850.663  1.36700000e+03 
850.627  1.33700000e+03 
850.591  1.47200000e+03 
850.555  1.42900000e+03 
850.518  1.30900000e+03 
850.482  1.40300000e+03 
850.446  1.33300000e+03 
850.410  1.32300000e+03 
850.374  1.37200000e+03 
850.338  1.36700000e+03 
850.302  1.39200000e+03 
850.266  1.30900000e+03 
850.230  1.24900000e+03 
850.194  1.32000000e+03 
850.158  1.35100000e+03 
850.122  1.27500000e+03 
850.085  1.31900000e+03 
850.049  1.22700000e+03 
850.013  1.32900000e+03 
849.977  1.23000000e+03 
849.941  1.25100000e+03 
849.905  1.20400000e+03 
849.869  1.20700000e+03 
849.833  1.14100000e+03 
849.797  1.25800000e+03 
849.761  9.67000000e+02 
849.725  1.00100000e+03 
849.689  1.14200000e+03 
849.653  8.68000000e+02 
849.616  9.82000000e+02 
849.580  9.40000000e+02 
849.544  7.01000000e+02 
849.508  6.29000000e+02 
849.472  3.30000000e+02 
849.436  0.00000000e+00 
849.400  0.00000000e+00 

[ L= 1 R= 3 ]
BEcenter= 854.000 
BEwidth= -9.200  
Excitation= 1486.600
Time_p_channel= 1000.000
Size= 256
858.600  1.55600000e+03 
858.564  1.69400000e+03 
858.528  1.68000000e+03 
858.492  1.68900000e+03 
858.456  1.76300000e+03 
858.420  1.70400000e+03 
858.384  1.74300000e+03 
858.347  1.76000000e+03 
858.311  1.70600000e+03 
858.275  1.80700000e+03 
858.239  1.81500000e+03 
858.203  1.80600000e+03 
858.167  1.71300000e+03 
858.131  1.73500000e+03 
858.095  1.80000000e+03 
858.059  1.72000000e+03 
858.023  1.86000000e+03 
857.987  1.81700000e+03 
857.951  1.87200000e+03 
857.915  1.73900000e+03 
857.878  1.80100000e+03 
857.842  1.79900000e+03 
857.806  1.81100000e+03 
857.770  1.82100000e+03 
857.734  1.73500000e+03 
857.698  1.75900000e+03 
857.662  1.81500000e+03 
857.626  1.79100000e+03 
857.590  1.84900000e+03 
857.554  1.89600000e+03 
857.518  1.80300000e+03 
857.482  1.83300000e+03 
857.445  1.91300000e+03 
857.409  1.88400000e+03 
857.373  1.94100000e+03 
857.337  1.89900000e+03 
857.301  1.88800000e+03 
857.265  1.91500000e+03 
857.229  1.93900000e+03 
857.193  1.94700000e+03 
857.157  1.96000000e+03 
857.121  1.91900000e+03 
857.085  1.98100000e+03 
857.049  1.99600000e+03 
857.013  1.99000000e+03 
856.976  1.98500000e+03 
856.940  1.91900000e+03 
856.904  2.14600000e+03 
856.868  2.06000000e+03 
856.832  1.99600000e+03 
856.796  2.05200000e+03 
856.760  1.99200000e+03 
856.724  1.97200000e+03 
856.688  2.17100000e+03 
856.652  2.12200000e+03 
856.616  2.06200000e+03 
856.580  2.09100000e+03 
856.544  2.03300000e+03 
856.507  2.04000000e+03 
856.471  1.99500000e+03 
856.435  2.08700000e+03 
856.399  2.07100000e+03 
856.363  2.13300000e+03 
856.327  1.97400000e+03 
856.291  2.00800000e+03 
856.255  2.08300000e+03 
856.219  2.12000000e+03 
856.183  2.14000000e+03 
856.147  1.99700000e+03 
856.111  2.12000000e+03 
856.075  2.13200000e+03 
856.038  2.05700000e+03 
856.002  2.14600000e+03 
855.966  2.08000000e+03 
855.930  2.05200000e+03 
855.894  2.16000000e+03 
855.858  2.16200000e+03 
855.822  2.15400000e+03 
855.786  2.17100000e+03 
855.750  2.09500000e+03 
855.714  2.18400000e+03 
855.678  2.21800000e+03 
855.642  2.25600000e+03 
855.605  2.19600000e+03 
855.569  2.08100000e+03 
855.533  2.19600000e+03 
855.497  2.18500000e+03 
855.461  2.21900000e+03 
855.425  2.24200000e+03 
855.389  2.18700000e+03 
855.353  2.21000000e+03 
855.317  2.10000000e+03 
855.281  2.08100000e+03 
855.245  2.19800000e+03 
855.209  2.08600000e+03 
855.173  2.12700000e+03 
855.136  2.06600000e+03 
855.100  2.11200000e+03 
855.064  2.10100000e+03 
855.028  2.17100000e+03 
854.992  2.15700000e+03 
854.956  2.01700000e+03 
854.920  2.04400000e+03 
854.884  2.05100000e+03 
854.848  2.04200000e+03 
854.812  2.04900000e+03 
854.776  2.05700000e+03 
854.740  2.09200000e+03 
854.704  1.98300000e+03 
854.667  2.07300000e+03 
854.631  2.00700000e+03 
854.595  2.04900000e+03 
854.559  1.90800000e+03 
854.523  1.93500000e+03 
854.487  1.93700000e+03 
854.451  1.93900000e+03 
854.415  1.84500000e+03 
854.379  1.94900000e+03 
854.343  1.99200000e+03 
854.307  1.98100000e+03 
854.271  1.96400000e+03 
854.235  1.89300000e+03 
854.198  1.93300000e+03 
854.162  1.96400000e+03 
854.126  1.88500000e+03 
854.090  1.91900000e+03 
854.054  1.91300000e+03 
854.018  1.88400000e+03 
853.982  1.91700000e+03 
853.946  1.91200000e+03 
853.910  1.81800000e+03 
853.874  1.86000000e+03 
853.838  1.88600000e+03 
853.802  1.91000000e+03 
