[ Experiment Parameters ]
Experiment Description= <none> 
Number_of_Regions_in_Experiment= 2 

Original_File_name= c:\alexesca\data\97072903.xps 
Instrument= ESCA-West
Date= 07-29-1997
Time=  16:17:24

[ Region 1 Parameters ]
Region_Description = O for XPD                          
BEcenter(eV) = 532.000000
BEwidth(eV) = 10.000000
BEstep(eV) = 0.035938
Dwell_Time(sec) = 0.750000
N_o_scans = 1  
N_o_Channels = 278  
Excitation_Energy = 0.000000  
Scan_mode = 0  (DITHERED)

[ Region 2 Parameters ]
Region_Description = Mn for XPD                         
BEcenter(eV) = 643.000000
BEwidth(eV) = 15.000000
BEstep(eV) = 0.035938
Dwell_Time(sec) = 0.750000
N_o_scans = 1  
N_o_Channels = 417  
Excitation_Energy = 0.000000  
Scan_mode = 0  (DITHERED)

[ Region 1 Curve ]
BEcenter= 532.000 
BEwidth= -9.943  
Excitation= 1486.600
Time_p_channel= 192.000 
Size= 278
536.972  6.10000000e+01 
536.936  5.80000000e+01 
536.900  4.60000000e+01 
536.864  5.30000000e+01 
536.828  7.00000000e+01 
536.792  6.10000000e+01 
536.756  6.10000000e+01 
536.720  6.30000000e+01 
536.685  6.50000000e+01 
536.649  6.70000000e+01 
536.613  8.10000000e+01 
536.577  5.90000000e+01 
536.541  6.50000000e+01 
536.505  5.20000000e+01 
536.469  6.30000000e+01 
536.433  6.30000000e+01 
536.397  5.60000000e+01 
536.361  6.10000000e+01 
536.326  5.20000000e+01 
536.290  5.60000000e+01 
536.254  4.30000000e+01 
536.218  5.20000000e+01 
536.182  7.60000000e+01 
536.146  6.70000000e+01 
536.110  5.40000000e+01 
536.074  5.90000000e+01 
536.038  5.80000000e+01 
536.002  7.20000000e+01 
535.967  6.30000000e+01 
535.931  6.30000000e+01 
535.895  5.20000000e+01 
535.859  6.20000000e+01 
535.823  4.60000000e+01 
535.787  6.20000000e+01 
535.751  7.50000000e+01 
535.715  6.20000000e+01 
535.679  5.90000000e+01 
535.644  6.30000000e+01 
535.608  6.80000000e+01 
535.572  6.10000000e+01 
535.536  7.00000000e+01 
535.500  6.20000000e+01 
535.464  6.60000000e+01 
535.428  7.60000000e+01 
535.392  7.40000000e+01 
535.356  5.90000000e+01 
535.320  7.00000000e+01 
535.285  7.20000000e+01 
535.249  7.50000000e+01 
535.213  8.10000000e+01 
535.177  6.90000000e+01 
535.141  8.80000000e+01 
535.105  8.80000000e+01 
535.069  9.00000000e+01 
535.033  9.40000000e+01 
534.997  9.60000000e+01 
534.961  8.40000000e+01 
534.926  9.70000000e+01 
534.890  9.50000000e+01 
534.854  1.01000000e+02 
534.818  8.50000000e+01 
534.782  1.00000000e+02 
534.746  1.28000000e+02 
534.710  1.06000000e+02 
534.674  1.25000000e+02 
534.638  1.08000000e+02 
534.603  1.23000000e+02 
534.567  1.24000000e+02 
534.531  1.23000000e+02 
534.495  1.16000000e+02 
534.459  1.28000000e+02 
534.423  1.26000000e+02 
534.387  1.41000000e+02 
534.351  1.43000000e+02 
534.315  1.38000000e+02 
534.279  1.48000000e+02 
534.244  1.26000000e+02 
534.208  1.37000000e+02 
534.172  1.77000000e+02 
534.136  1.52000000e+02 
534.100  1.66000000e+02 
534.064  1.61000000e+02 
534.028  1.71000000e+02 
533.992  1.52000000e+02 
533.956  1.69000000e+02 
533.920  1.57000000e+02 
533.885  2.04000000e+02 
533.849  2.06000000e+02 
533.813  1.85000000e+02 
533.777  1.81000000e+02 
533.741  1.82000000e+02 
533.705  2.38000000e+02 
533.669  2.06000000e+02 
533.633  2.03000000e+02 
533.597  2.07000000e+02 
533.562  2.24000000e+02 
533.526  2.32000000e+02 
533.490  2.53000000e+02 
533.454  2.26000000e+02 
533.418  2.46000000e+02 
533.382  2.62000000e+02 
533.346  2.40000000e+02 
533.310  2.58000000e+02 
533.274  2.36000000e+02 
533.238  2.83000000e+02 
533.203  2.70000000e+02 
533.167  2.64000000e+02 
533.131  2.32000000e+02 
533.095  2.61000000e+02 
533.059  2.76000000e+02 
533.023  2.58000000e+02 
532.987  2.65000000e+02 
532.951  2.50000000e+02 
532.915  2.39000000e+02 
532.879  2.76000000e+02 
532.844  2.82000000e+02 
532.808  2.49000000e+02 
532.772  2.45000000e+02 
532.736  2.36000000e+02 
532.700  2.27000000e+02 
532.664  2.21000000e+02 
532.628  2.11000000e+02 
532.592  2.21000000e+02 
532.556  2.03000000e+02 
532.521  2.06000000e+02 
532.485  1.83000000e+02 
532.449  2.04000000e+02 
532.413  1.84000000e+02 
532.377  2.07000000e+02 
532.341  1.77000000e+02 
532.305  1.57000000e+02 
532.269  1.61000000e+02 
532.233  1.84000000e+02 
532.197  1.43000000e+02 
532.162  1.51000000e+02 
532.126  1.50000000e+02 
532.090  1.44000000e+02 
532.054  1.33000000e+02 
532.018  1.25000000e+02 
531.982  1.12000000e+02 
531.946  1.30000000e+02 
531.910  1.11000000e+02 
531.874  1.13000000e+02 
531.838  1.18000000e+02 
531.803  1.19000000e+02 
531.767  1.14000000e+02 
531.731  9.80000000e+01 
531.695  9.50000000e+01 
531.659  9.90000000e+01 
531.623  9.80000000e+01 
531.587  9.00000000e+01 
531.551  7.40000000e+01 
531.515  1.06000000e+02 
531.479  7.90000000e+01 
531.444  8.90000000e+01 
531.408  9.90000000e+01 
531.372  6.40000000e+01 
531.336  7.50000000e+01 
531.300  7.50000000e+01 
531.264  7.90000000e+01 
531.228  6.70000000e+01 
531.192  9.10000000e+01 
531.156  7.90000000e+01 
531.121  7.10000000e+01 
531.085  8.00000000e+01 
531.049  6.10000000e+01 
531.013  7.70000000e+01 
530.977  6.70000000e+01 
530.941  7.20000000e+01 
530.905  7.20000000e+01 
530.869  7.00000000e+01 
530.833  7.30000000e+01 
530.797  7.00000000e+01 
530.762  7.30000000e+01 
530.726  6.40000000e+01 
530.690  8.90000000e+01 
530.654  5.80000000e+01 
530.618  7.10000000e+01 
530.582  6.30000000e+01 
530.546  5.70000000e+01 
530.510  5.90000000e+01 
530.474  7.10000000e+01 
530.438  6.00000000e+01 
530.403  5.10000000e+01 
530.367  5.80000000e+01 
530.331  6.50000000e+01 
530.295  6.80000000e+01 
530.259  6.70000000e+01 
530.223  6.50000000e+01 
530.187  5.90000000e+01 
530.151  7.10000000e+01 
530.115  5.60000000e+01 
530.080  5.30000000e+01 
530.044  5.80000000e+01 
530.008  6.60000000e+01 
529.972  4.80000000e+01 
529.936  6.60000000e+01 
529.900  5.20000000e+01 
529.864  6.40000000e+01 
529.828  4.60000000e+01 
529.792  5.60000000e+01 
529.756  5.20000000e+01 
529.721  4.90000000e+01 
529.685  7.40000000e+01 
529.649  5.90000000e+01 
529.613  5.70000000e+01 
529.577  4.50000000e+01 
529.541  6.50000000e+01 
529.505  4.60000000e+01 
529.469  5.10000000e+01 
529.433  5.70000000e+01 
529.397  5.30000000e+01 
529.362  5.40000000e+01 
529.326  5.80000000e+01 
529.290  5.90000000e+01 
529.254  4.80000000e+01 
529.218  4.90000000e+01 
529.182  4.70000000e+01 
529.146  4.10000000e+01 
529.110  5.80000000e+01 
529.074  6.60000000e+01 
529.039  5.40000000e+01 
529.003  4.80000000e+01 
528.967  5.40000000e+01 
528.931  4.30000000e+01 
528.895  6.20000000e+01 
528.859  7.20000000e+01 
528.823  5.30000000e+01 
528.787  4.60000000e+01 
528.751  5.00000000e+01 
528.715  6.40000000e+01 
528.680  5.50000000e+01 
528.644  5.70000000e+01 
528.608  5.40000000e+01 
528.572  5.10000000e+01 
528.536  5.40000000e+01 
528.500  6.90000000e+01 
528.464  4.50000000e+01 
528.428  4.60000000e+01 
528.392  6.00000000e+01 
528.356  4.30000000e+01 
528.321  4.40000000e+01 
528.285  5.10000000e+01 
528.249  4.10000000e+01 
528.213  5.30000000e+01 
528.177  6.00000000e+01 
528.141  5.70000000e+01 
528.105  6.60000000e+01 
528.069  6.20000000e+01 
528.033  5.70000000e+01 
527.998  5.50000000e+01 
527.962  4.90000000e+01 
527.926  5.90000000e+01 
527.890  4.70000000e+01 
527.854  4.70000000e+01 
527.818  4.60000000e+01 
527.782  5.70000000e+01 
527.746  5.50000000e+01 
527.710  5.30000000e+01 
527.674  4.80000000e+01 
527.639  5.80000000e+01 
527.603  5.50000000e+01 
527.567  5.40000000e+01 
527.531  5.70000000e+01 
527.495  4.00000000e+01 
527.459  5.20000000e+01 
527.423  5.00000000e+01 
527.387  5.50000000e+01 
527.351  5.00000000e+01 
527.315  4.70000000e+01 
527.280  4.10000000e+01 
527.244  6.10000000e+01 
527.208  5.70000000e+01 
527.172  5.00000000e+01 
527.136  5.70000000e+01 
527.100  5.40000000e+01 
527.064  5.80000000e+01 
527.028  4.80000000e+01 
[ Region 2 Curve ]
BEcenter= 643.000 
BEwidth= -14.938 
Excitation= 1486.600
Time_p_channel= 192.000 
Size= 417
650.469  1.01000000e+02 
650.433  8.90000000e+01 
650.397  8.00000000e+01 
650.361  8.00000000e+01 
650.325  9.30000000e+01 
650.289  9.60000000e+01 
650.253  9.80000000e+01 
650.217  7.00000000e+01 
650.181  9.20000000e+01 
650.146  9.50000000e+01 
650.110  1.02000000e+02 
650.074  1.08000000e+02 
650.038  8.30000000e+01 
650.002  8.90000000e+01 
649.966  8.70000000e+01 
649.930  8.50000000e+01 
649.894  9.60000000e+01 
649.858  1.02000000e+02 
649.822  9.10000000e+01 
649.787  9.60000000e+01 
649.751  9.00000000e+01 
649.715  9.50000000e+01 
649.679  7.60000000e+01 
649.643  1.01000000e+02 
649.607  9.20000000e+01 
649.571  8.80000000e+01 
649.535  7.80000000e+01 
649.499  8.80000000e+01 
649.463  7.10000000e+01 
649.427  9.10000000e+01 
649.392  8.20000000e+01 
649.356  8.80000000e+01 
649.320  9.30000000e+01 
649.284  8.90000000e+01 
649.248  8.20000000e+01 
649.212  1.04000000e+02 
649.176  9.50000000e+01 
649.140  7.70000000e+01 
649.104  1.04000000e+02 
649.068  9.60000000e+01 
649.032  9.50000000e+01 
648.997  1.02000000e+02 
648.961  7.20000000e+01 
648.925  1.17000000e+02 
648.889  8.80000000e+01 
648.853  1.00000000e+02 
648.817  9.50000000e+01 
648.781  9.10000000e+01 
648.745  8.80000000e+01 
648.709  8.70000000e+01 
648.673  7.60000000e+01 
648.637  1.01000000e+02 
648.602  1.04000000e+02 
648.566  1.03000000e+02 
648.530  9.80000000e+01 
648.494  1.12000000e+02 
648.458  7.60000000e+01 
648.422  9.40000000e+01 
648.386  8.40000000e+01 
648.350  7.90000000e+01 
648.314  9.00000000e+01 
648.278  8.40000000e+01 
648.242  9.30000000e+01 
648.207  7.80000000e+01 
648.171  8.60000000e+01 
648.135  8.20000000e+01 
648.099  8.10000000e+01 
648.063  9.00000000e+01 
648.027  1.06000000e+02 
647.991  7.90000000e+01 
647.955  1.00000000e+02 
647.919  8.60000000e+01 
647.883  9.30000000e+01 
647.848  9.20000000e+01 
647.812  9.70000000e+01 
647.776  7.80000000e+01 
647.740  1.01000000e+02 
647.704  8.90000000e+01 
647.668  8.60000000e+01 
647.632  1.05000000e+02 
647.596  8.60000000e+01 
647.560  9.50000000e+01 
647.524  9.00000000e+01 
647.488  9.40000000e+01 
647.453  8.80000000e+01 
647.417  1.06000000e+02 
647.381  8.30000000e+01 
647.345  7.50000000e+01 
647.309  8.00000000e+01 
647.273  9.50000000e+01 
647.237  8.10000000e+01 
647.201  9.00000000e+01 
647.165  9.20000000e+01 
647.129  9.50000000e+01 
647.093  1.03000000e+02 
647.058  9.10000000e+01 
647.022  1.14000000e+02 
646.986  7.40000000e+01 
646.950  9.10000000e+01 
646.914  9.10000000e+01 
646.878  9.80000000e+01 
646.842  8.80000000e+01 
646.806  7.50000000e+01 
646.770  9.50000000e+01 
646.734  8.90000000e+01 
646.698  1.12000000e+02 
646.663  9.50000000e+01 
646.627  8.40000000e+01 
646.591  8.70000000e+01 
646.555  8.30000000e+01 
646.519  7.00000000e+01 
646.483  1.04000000e+02 
646.447  7.90000000e+01 
646.411  8.10000000e+01 
646.375  1.05000000e+02 
646.339  1.07000000e+02 
646.303  1.01000000e+02 
646.268  9.10000000e+01 
646.232  8.50000000e+01 
646.196  8.70000000e+01 
646.160  8.50000000e+01 
646.124  1.07000000e+02 
646.088  8.90000000e+01 
646.052  9.00000000e+01 
646.016  8.00000000e+01 
645.980  7.80000000e+01 
645.944  1.12000000e+02 
645.909  7.50000000e+01 
645.873  8.90000000e+01 
645.837  9.00000000e+01 
645.801  9.20000000e+01 
645.765  1.08000000e+02 
645.729  8.90000000e+01 
645.693  7.20000000e+01 
645.657  9.70000000e+01 
645.621  1.00000000e+02 
645.585  9.80000000e+01 
645.549  8.50000000e+01 
645.514  8.80000000e+01 
645.478  9.20000000e+01 
645.442  8.10000000e+01 
645.406  8.10000000e+01 
645.370  9.50000000e+01 
645.334  1.06000000e+02 
645.298  1.05000000e+02 
645.262  9.30000000e+01 
645.226  9.90000000e+01 
645.190  8.90000000e+01 
645.154  8.90000000e+01 
645.119  8.90000000e+01 
645.083  1.17000000e+02 
645.047  8.50000000e+01 
645.011  8.20000000e+01 
644.975  9.90000000e+01 
644.939  7.70000000e+01 
644.903  8.50000000e+01 
644.867  1.11000000e+02 
644.831  1.07000000e+02 
644.795  9.00000000e+01 
644.759  9.60000000e+01 
644.724  8.90000000e+01 
644.688  9.30000000e+01 
644.652  9.60000000e+01 
644.616  7.50000000e+01 
644.580  1.06000000e+02 
644.544  8.80000000e+01 
644.508  1.03000000e+02 
644.472  1.13000000e+02 
644.436  8.40000000e+01 
644.400  1.03000000e+02 
644.364  1.03000000e+02 
644.329  9.10000000e+01 
644.293  8.10000000e+01 
644.257  9.70000000e+01 
644.221  1.11000000e+02 
644.185  9.20000000e+01 
644.149  8.90000000e+01 
644.113  8.80000000e+01 
644.077  8.20000000e+01 
644.041  7.50000000e+01 
644.005  9.90000000e+01 
643.970  9.50000000e+01 
643.934  8.80000000e+01 
643.898  9.20000000e+01 
643.862  9.10000000e+01 
643.826  9.00000000e+01 
643.790  9.80000000e+01 
643.754  7.50000000e+01 
643.718  9.60000000e+01 
643.682  9.10000000e+01 
643.646  1.05000000e+02 
643.610  1.06000000e+02 
643.575  8.30000000e+01 
643.539  8.90000000e+01 
643.503  9.50000000e+01 
643.467  9.20000000e+01 
643.431  1.09000000e+02 
643.395  9.90000000e+01 
643.359  8.50000000e+01 
643.323  8.50000000e+01 
643.287  1.02000000e+02 
643.251  8.30000000e+01 
643.215  1.12000000e+02 
643.180  9.50000000e+01 
643.144  7.30000000e+01 
643.108  7.20000000e+01 
643.072  1.04000000e+02 
643.036  8.40000000e+01 
643.000  1.05000000e+02 
642.964  1.02000000e+02 
642.928  8.50000000e+01 
642.892  6.70000000e+01 
642.856  1.10000000e+02 
642.820  9.60000000e+01 
642.785  1.13000000e+02 
642.749  8.10000000e+01 
642.713  9.40000000e+01 
642.677  9.60000000e+01 
642.641  7.80000000e+01 
642.605  1.04000000e+02 
642.569  9.30000000e+01 
642.533  9.20000000e+01 
642.497  9.90000000e+01 
642.461  8.50000000e+01 
642.425  8.90000000e+01 
642.390  8.90000000e+01 
642.354  8.60000000e+01 
642.318  8.10000000e+01 
642.282  1.07000000e+02 
642.246  9.20000000e+01 
642.210  9.40000000e+01 
642.174  9.50000000e+01 
642.138  8.30000000e+01 
642.102  1.09000000e+02 
642.066  1.00000000e+02 
642.030  9.20000000e+01 
641.995  8.00000000e+01 
641.959  1.01000000e+02 
641.923  8.00000000e+01 
641.887  8.10000000e+01 
641.851  9.10000000e+01 
641.815  8.60000000e+01 
641.779  9.30000000e+01 
641.743  8.30000000e+01 
641.707  1.02000000e+02 
641.671  1.05000000e+02 
641.636  8.60000000e+01 
641.600  8.90000000e+01 
641.564  8.80000000e+01 
641.528  9.00000000e+01 
641.492  1.08000000e+02 
641.456  7.90000000e+01 
641.420  9.20000000e+01 
641.384  9.30000000e+01 
641.348  1.26000000e+02 
641.312  8.00000000e+01 
641.276  9.90000000e+01 
641.241  1.09000000e+02 
641.205  9.10000000e+01 
641.169  8.40000000e+01 
641.133  1.03000000e+02 
641.097  8.50000000e+01 
641.061  9.00000000e+01 
641.025  8.50000000e+01 
640.989  8.50000000e+01 
640.953  9.10000000e+01 
640.917  8.60000000e+01 
640.881  8.10000000e+01 
640.846  8.80000000e+01 
640.810  8.90000000e+01 
640.774  9.30000000e+01 
640.738  7.30000000e+01 
640.702  7.80000000e+01 
640.666  9.30000000e+01 
640.630  9.90000000e+01 
640.594  1.03000000e+02 
640.558  1.05000000e+02 
640.522  8.30000000e+01 
640.486  9.70000000e+01 
640.451  9.60000000e+01 
640.415  8.90000000e+01 
640.379  8.60000000e+01 
640.343  9.40000000e+01 
640.307  8.70000000e+01 
640.271  9.80000000e+01 
640.235  8.10000000e+01 
640.199  9.20000000e+01 
640.163  1.00000000e+02 
640.127  8.90000000e+01 
640.091  9.70000000e+01 
640.056  7.40000000e+01 
640.020  9.90000000e+01 
639.984  7.00000000e+01 
639.948  7.80000000e+01 
639.912  9.10000000e+01 
639.876  9.40000000e+01 
639.840  9.10000000e+01 
639.804  9.00000000e+01 
639.768  9.20000000e+01 
639.732  7.30000000e+01 
639.697  1.03000000e+02 
639.661  9.80000000e+01 
639.625  9.80000000e+01 
639.589  7.50000000e+01 
639.553  8.80000000e+01 
639.517  9.20000000e+01 
639.481  8.90000000e+01 
639.445  9.10000000e+01 
639.409  8.90000000e+01 
639.373  8.70000000e+01 
639.337  9.00000000e+01 
639.302  8.10000000e+01 
639.266  1.04000000e+02 
639.230  9.80000000e+01 
639.194  8.10000000e+01 
639.158  8.70000000e+01 
639.122  1.02000000e+02 
639.086  9.40000000e+01 
639.050  9.00000000e+01 
639.014  8.00000000e+01 
638.978  9.60000000e+01 
638.942  7.70000000e+01 
638.907  8.10000000e+01 
638.871  9.50000000e+01 
638.835  8.30000000e+01 
638.799  9.50000000e+01 
638.763  1.02000000e+02 
638.727  9.00000000e+01 
638.691  1.04000000e+02 
638.655  9.00000000e+01 
638.619  9.70000000e+01 
638.583  9.70000000e+01 
638.547  8.20000000e+01 
638.512  9.60000000e+01 
638.476  8.30000000e+01 
638.440  9.10000000e+01 
638.404  9.10000000e+01 
638.368  7.50000000e+01 
638.332  9.70000000e+01 
638.296  9.40000000e+01 
638.260  8.00000000e+01 
638.224  7.60000000e+01 
638.188  7.20000000e+01 
638.152  9.30000000e+01 
638.117  8.80000000e+01 
638.081  1.01000000e+02 
638.045  9.00000000e+01 
638.009  9.50000000e+01 
637.973  8.60000000e+01 
637.937  7.70000000e+01 
637.901  1.07000000e+02 
637.865  7.80000000e+01 
637.829  8.40000000e+01 
637.793  9.50000000e+01 
637.758  9.00000000e+01 
637.722  8.60000000e+01 
637.686  7.90000000e+01 
637.650  8.60000000e+01 
637.614  8.80000000e+01 
637.578  8.10000000e+01 
637.542  1.12000000e+02 
637.506  9.90000000e+01 
637.470  9.30000000e+01 
637.434  9.40000000e+01 
637.398  9.10000000e+01 
637.363  8.50000000e+01 
637.327  8.90000000e+01 
637.291  1.13000000e+02 
637.255  1.00000000e+02 
637.219  8.70000000e+01 
637.183  9.00000000e+01 
637.147  8.40000000e+01 
637.111  8.60000000e+01 
637.075  9.00000000e+01 
637.039  8.50000000e+01 
637.003  1.13000000e+02 
636.968  9.30000000e+01 
636.932  9.00000000e+01 
636.896  6.70000000e+01 
636.860  9.90000000e+01 
636.824  1.01000000e+02 
636.788  9.90000000e+01 
636.752  9.60000000e+01 
636.716  9.60000000e+01 
636.680  8.50000000e+01 
636.644  7.70000000e+01 
636.608  7.60000000e+01 
636.573  1.01000000e+02 
636.537  7.80000000e+01 
636.501  8.20000000e+01 
636.465  1.11000000e+02 
636.429  7.20000000e+01 
636.393  9.90000000e+01 
636.357  1.06000000e+02 
636.321  1.04000000e+02 
636.285  1.01000000e+02 
636.249  1.05000000e+02 
636.213  7.40000000e+01 
636.178  9.60000000e+01 
636.142  9.80000000e+01 
636.106  7.60000000e+01 
636.070  8.70000000e+01 
636.034  8.90000000e+01 
635.998  8.30000000e+01 
635.962  1.06000000e+02 
635.926  8.80000000e+01 
635.890  1.02000000e+02 
635.854  1.01000000e+02 
635.819  9.00000000e+01 
635.783  8.10000000e+01 
635.747  8.60000000e+01 
635.711  8.90000000e+01 
635.675  8.40000000e+01 
635.639  9.00000000e+01 
635.603  8.20000000e+01 
635.567  6.70000000e+01 
635.531  9.10000000e+01 
