[ Experiment Parameters ]
Experiment Description= <none> 
Number_of_Regions_in_Experiment= 1 

Original_File_name= c:\alexesca\data\97071011.xps 
Instrument= ESCA-West
Date= 07-10-1997
Time=  08:32:38

[ Region 1 Parameters ]
Region_Description = au 4f dithered                     
BEcenter(eV) = 85.000000
BEwidth(eV) = 8.000000
BEstep(eV) = 0.107813
Dwell_Time(sec) = 0.500000
N_o_scans = 1  
N_o_Channels = 74  
Excitation_Energy = 0.000000  
Scan_mode = 0  (DITHERED)

[ Region 1 Curve ]
BEcenter= 85.000  
BEwidth= -7.838  
Excitation= 1486.600
Time_p_channel= 384.000 
Size= 74
88.919   1.14000000e+03 
88.812   1.15600000e+03 
88.704   1.38200000e+03 
88.597   1.52600000e+03 
88.489   1.74700000e+03 
88.382   1.95600000e+03 
88.275   2.28700000e+03 
88.167   2.57300000e+03 
88.060   2.94700000e+03 
87.953   3.37000000e+03 
87.845   3.91900000e+03 
87.738   4.06700000e+03 
87.631   4.37300000e+03 
87.523   4.06900000e+03 
87.416   3.64500000e+03 
87.308   3.17300000e+03 
87.201   2.49500000e+03 
87.094   1.92600000e+03 
86.986   1.60300000e+03 
86.879   1.33900000e+03 
86.772   1.08200000e+03 
86.664   9.59000000e+02 
86.557   8.85000000e+02 
86.449   9.23000000e+02 
86.342   8.38000000e+02 
86.235   8.71000000e+02 
86.127   8.36000000e+02 
86.020   8.91000000e+02 
85.913   9.09000000e+02 
85.805   9.41000000e+02 
85.698   1.02900000e+03 
85.591   1.11200000e+03 
85.483   1.10200000e+03 
85.376   1.32800000e+03 
85.268   1.51800000e+03 
85.161   1.63000000e+03 
85.054   1.87400000e+03 
84.946   2.11100000e+03 
84.839   2.34800000e+03 
84.732   2.52300000e+03 
84.624   2.75900000e+03 
84.517   3.14300000e+03 
84.409   3.56300000e+03 
84.302   3.90100000e+03 
84.195   4.35900000e+03 
84.087   4.72600000e+03 
83.980   4.79100000e+03 
83.873   4.37700000e+03 
83.765   3.88500000e+03 
83.658   3.11600000e+03 
83.551   2.44700000e+03 
83.443   1.90400000e+03 
83.336   1.35000000e+03 
83.228   1.08500000e+03 
83.121   8.54000000e+02 
83.014   7.40000000e+02 
82.906   6.00000000e+02 
82.799   5.44000000e+02 
82.692   4.79000000e+02 
82.584   4.31000000e+02 
82.477   3.75000000e+02 
82.369   3.90000000e+02 
82.262   3.66000000e+02 
82.155   3.49000000e+02 
82.047   3.26000000e+02 
81.940   2.77000000e+02 
81.833   3.21000000e+02 
81.725   2.91000000e+02 
81.618   2.78000000e+02 
81.511   2.67000000e+02 
81.403   2.66000000e+02 
81.296   2.84000000e+02 
81.188   2.57000000e+02 
81.081   2.52000000e+02 
