[ Experiment Parameters ]
Experiment Description= <none> 
Number_of_Regions_in_Experiment= 1 

Original_File_name= c:\alexesca\data\97071005.xps 
Instrument= ESCA-West
Date= 07-10-1997
Time=  08:09:40

[ Region 1 Parameters ]
Region_Description = au 4f dithered                     
BEcenter(eV) = 85.000000
BEwidth(eV) = 8.000000
BEstep(eV) = 0.084375
Dwell_Time(sec) = 0.500000
N_o_scans = 1  
N_o_Channels = 95  
Excitation_Energy = 0.000000  
Scan_mode = 0  (DITHERED)

[ Region 1 Curve ]
BEcenter= 85.000  
BEwidth= -7.914  
Excitation= 1486.600
Time_p_channel= 384.000 
Size= 95
88.957   1.30900000e+03 
88.873   1.44000000e+03 
88.789   1.58200000e+03 
88.704   1.72100000e+03 
88.620   1.91700000e+03 
88.536   2.15000000e+03 
88.452   2.41400000e+03 
88.368   2.58000000e+03 
88.283   2.89300000e+03 
88.199   2.99000000e+03 
88.115   3.00200000e+03 
88.031   3.29400000e+03 
87.947   3.22700000e+03 
87.863   3.25400000e+03 
87.778   3.16800000e+03 
87.694   3.29500000e+03 
87.610   3.24400000e+03 
87.526   3.13500000e+03 
87.442   3.04800000e+03 
87.357   2.79700000e+03 
87.273   2.58800000e+03 
87.189   2.37200000e+03 
87.105   2.00900000e+03 
87.021   1.77500000e+03 
86.936   1.53200000e+03 
86.852   1.31800000e+03 
86.768   1.19100000e+03 
86.684   1.03000000e+03 
86.600   9.42000000e+02 
86.515   8.57000000e+02 
86.431   8.82000000e+02 
86.347   8.48000000e+02 
86.263   8.29000000e+02 
86.179   8.39000000e+02 
86.094   8.03000000e+02 
86.010   8.24000000e+02 
85.926   8.56000000e+02 
85.842   8.87000000e+02 
85.758   9.43000000e+02 
85.674   1.00000000e+03 
85.589   1.13100000e+03 
85.505   1.17100000e+03 
85.421   1.36500000e+03 
85.337   1.47300000e+03 
85.253   1.75000000e+03 
85.168   1.93800000e+03 
85.084   2.24200000e+03 
85.000   2.47300000e+03 
84.916   2.91800000e+03 
84.832   3.11100000e+03 
84.747   3.51400000e+03 
84.663   3.68100000e+03 
84.579   3.79900000e+03 
84.495   3.85100000e+03 
84.411   3.69800000e+03 
84.326   3.65400000e+03 
84.242   3.42500000e+03 
84.158   3.32300000e+03 
84.074   3.24800000e+03 
83.990   3.23900000e+03 
83.906   3.10400000e+03 
83.821   2.86000000e+03 
83.737   2.81000000e+03 
83.653   2.60000000e+03 
83.569   2.55900000e+03 
83.485   2.30800000e+03 
83.400   1.97900000e+03 
83.316   1.71900000e+03 
83.232   1.44700000e+03 
83.148   1.22600000e+03 
83.064   9.55000000e+02 
82.979   8.47000000e+02 
82.895   6.88000000e+02 
82.811   6.16000000e+02 
82.727   5.73000000e+02 
82.643   5.17000000e+02 
82.558   4.31000000e+02 
82.474   4.04000000e+02 
82.390   4.24000000e+02 
82.306   3.80000000e+02 
82.222   3.68000000e+02 
82.137   3.45000000e+02 
82.053   3.27000000e+02 
81.969   3.14000000e+02 
81.885   3.10000000e+02 
81.801   3.16000000e+02 
81.717   2.52000000e+02 
81.632   3.08000000e+02 
81.548   2.89000000e+02 
81.464   2.80000000e+02 
81.380   2.60000000e+02 
81.296   2.59000000e+02 
81.211   2.27000000e+02 
81.127   2.70000000e+02 
81.043   2.70000000e+02 
