[ Experiment Parameters ]
Experiment Description= <none> 
Number_of_Regions_in_Experiment= 1 

Original_File_name= c:\alexesca\data\97071002.xps 
Instrument= ESCA-West
Date= 07-10-1997
Time=  07:55:02

[ Region 1 Parameters ]
Region_Description = au 4f dithered                     
BEcenter(eV) = 85.000000
BEwidth(eV) = 8.000000
BEstep(eV) = 0.014063
Dwell_Time(sec) = 0.500000
N_o_scans = 1  
N_o_Channels = 569  
Excitation_Energy = 0.000000  
Scan_mode = 0  (DITHERED)

[ Region 1 Curve ]
BEcenter= 85.000  
BEwidth= -7.984  
Excitation= 1486.600
Time_p_channel= 384.000 
Size= 569
88.992   1.37900000e+03 
88.978   1.41000000e+03 
88.964   1.40200000e+03 
88.950   1.42100000e+03 
88.936   1.39800000e+03 
88.922   1.33800000e+03 
88.908   1.38600000e+03 
88.894   1.41400000e+03 
88.880   1.31900000e+03 
88.866   1.30600000e+03 
88.852   1.34600000e+03 
88.838   1.28900000e+03 
88.824   1.32400000e+03 
88.809   1.35900000e+03 
88.795   1.39900000e+03 
88.781   1.45500000e+03 
88.767   1.31100000e+03 
88.753   1.35900000e+03 
88.739   1.37700000e+03 
88.725   1.34700000e+03 
88.711   1.42900000e+03 
88.697   1.45000000e+03 
88.683   1.32600000e+03 
88.669   1.36800000e+03 
88.655   1.34800000e+03 
88.641   1.38400000e+03 
88.627   1.39400000e+03 
88.613   1.32000000e+03 
88.599   1.37300000e+03 
88.585   1.32900000e+03 
88.570   1.32900000e+03 
88.556   1.35400000e+03 
88.542   1.33200000e+03 
88.528   1.33000000e+03 
88.514   1.29800000e+03 
88.500   1.38400000e+03 
88.486   1.40400000e+03 
88.472   1.39900000e+03 
88.458   1.36900000e+03 
88.444   1.43100000e+03 
88.430   1.48100000e+03 
88.416   1.44600000e+03 
88.402   1.41100000e+03 
88.388   1.38600000e+03 
88.374   1.32700000e+03 
88.360   1.42100000e+03 
88.346   1.43600000e+03 
88.332   1.40100000e+03 
88.317   1.38600000e+03 
88.303   1.48300000e+03 
88.289   1.36800000e+03 
88.275   1.45600000e+03 
88.261   1.49800000e+03 
88.247   1.46800000e+03 
88.233   1.43400000e+03 
88.219   1.46600000e+03 
88.205   1.47200000e+03 
88.191   1.41300000e+03 
88.177   1.40500000e+03 
88.163   1.37900000e+03 
88.149   1.35700000e+03 
88.135   1.41800000e+03 
88.121   1.40900000e+03 
88.107   1.39000000e+03 
88.093   1.32200000e+03 
88.078   1.48500000e+03 
88.064   1.47800000e+03 
88.050   1.51900000e+03 
88.036   1.46900000e+03 
88.022   1.51000000e+03 
88.008   1.52400000e+03 
87.994   1.45600000e+03 
87.980   1.45300000e+03 
87.966   1.51400000e+03 
87.952   1.52500000e+03 
87.938   1.46500000e+03 
87.924   1.42700000e+03 
87.910   1.49200000e+03 
87.896   1.48300000e+03 
87.882   1.54800000e+03 
87.868   1.56100000e+03 
87.854   1.44200000e+03 
87.840   1.58100000e+03 
87.825   1.52000000e+03 
87.811   1.60100000e+03 
87.797   1.59200000e+03 
87.783   1.51800000e+03 
87.769   1.70300000e+03 
87.755   1.57400000e+03 
87.741   1.58400000e+03 
87.727   1.62000000e+03 
87.713   1.59800000e+03 
87.699   1.57300000e+03 
87.685   1.63500000e+03 
87.671   1.60200000e+03 
87.657   1.65300000e+03 
87.643   1.62700000e+03 
87.629   1.67300000e+03 
87.615   1.73100000e+03 
87.601   1.60300000e+03 
87.586   1.68500000e+03 
87.572   1.60500000e+03 
87.558   1.65700000e+03 
87.544   1.62500000e+03 
87.530   1.72100000e+03 
87.516   1.70100000e+03 
87.502   1.66800000e+03 
87.488   1.71000000e+03 
87.474   1.72500000e+03 
87.460   1.78500000e+03 
87.446   1.68300000e+03 
87.432   1.71300000e+03 
87.418   1.80900000e+03 
87.404   1.76000000e+03 
87.390   1.78100000e+03 
87.376   1.82200000e+03 
87.362   1.81900000e+03 
87.348   1.81000000e+03 
87.333   1.79200000e+03 
87.319   1.79400000e+03 
87.305   1.78400000e+03 
87.291   1.81600000e+03 
87.277   1.89300000e+03 
87.263   1.79800000e+03 
87.249   1.87700000e+03 
87.235   1.91100000e+03 
87.221   1.87300000e+03 
87.207   1.91400000e+03 
87.193   1.93300000e+03 
87.179   1.89600000e+03 
87.165   1.93400000e+03 
87.151   1.94000000e+03 
87.137   1.90400000e+03 
87.123   1.89200000e+03 
87.109   1.93100000e+03 
87.094   1.91500000e+03 
87.080   1.99900000e+03 
87.066   1.93600000e+03 
87.052   1.95800000e+03 
87.038   1.89600000e+03 
87.024   1.92700000e+03 
87.010   2.01200000e+03 
86.996   2.02700000e+03 
86.982   1.89500000e+03 
86.968   1.95100000e+03 
86.954   1.95200000e+03 
86.940   1.95800000e+03 
86.926   1.96500000e+03 
86.912   2.04100000e+03 
86.898   1.97300000e+03 
86.884   1.84300000e+03 
86.870   2.03000000e+03 
86.856   1.98500000e+03 
86.841   1.98500000e+03 
86.827   2.01600000e+03 
86.813   1.94500000e+03 
86.799   2.00200000e+03 
86.785   2.06900000e+03 
86.771   2.01400000e+03 
86.757   2.06400000e+03 
86.743   2.00900000e+03 
86.729   2.09600000e+03 
86.715   2.06200000e+03 
86.701   2.03600000e+03 
86.687   1.86700000e+03 
86.673   2.07000000e+03 
86.659   2.08800000e+03 
86.645   1.98400000e+03 
86.631   2.04200000e+03 
86.617   1.99500000e+03 
86.602   2.02400000e+03 
86.588   2.04600000e+03 
86.574   2.03600000e+03 
86.560   2.08500000e+03 
86.546   2.02200000e+03 
86.532   2.17500000e+03 
86.518   2.02700000e+03 
86.504   2.08500000e+03 
86.490   2.05900000e+03 
86.476   2.14700000e+03 
86.462   2.07100000e+03 
86.448   2.01800000e+03 
86.434   2.10400000e+03 
86.420   2.09200000e+03 
86.406   2.09800000e+03 
86.392   2.07200000e+03 
86.378   2.05500000e+03 
86.364   2.08600000e+03 
86.349   2.13100000e+03 
86.335   2.03000000e+03 
86.321   2.06300000e+03 
86.307   2.01900000e+03 
86.293   1.97700000e+03 
86.279   1.99100000e+03 
86.265   2.05200000e+03 
86.251   2.06900000e+03 
86.237   2.04600000e+03 
86.223   2.02100000e+03 
86.209   2.01500000e+03 
86.195   2.04400000e+03 
86.181   2.02800000e+03 
86.167   2.08600000e+03 
86.153   2.07800000e+03 
86.139   2.11700000e+03 
86.125   1.99200000e+03 
86.111   2.05600000e+03 
86.096   2.09800000e+03 
86.082   2.13000000e+03 
86.068   2.10000000e+03 
86.054   1.98700000e+03 
86.040   2.02200000e+03 
86.026   2.14500000e+03 
86.012   2.12500000e+03 
85.998   2.08000000e+03 
85.984   2.08900000e+03 
85.970   2.11800000e+03 
85.956   2.09300000e+03 
85.942   2.06100000e+03 
85.928   2.17000000e+03 
85.914   2.15900000e+03 
85.900   2.04800000e+03 
85.886   2.07500000e+03 
85.872   2.08500000e+03 
85.857   1.96800000e+03 
85.843   2.04300000e+03 
85.829   2.07500000e+03 
85.815   2.00300000e+03 
85.801   2.00500000e+03 
85.787   1.98200000e+03 
85.773   2.01800000e+03 
85.759   1.96600000e+03 
85.745   2.04700000e+03 
85.731   1.98500000e+03 
85.717   1.94300000e+03 
85.703   1.94200000e+03 
85.689   2.00100000e+03 
85.675   1.97000000e+03 
85.661   1.86300000e+03 
85.647   1.99300000e+03 
85.633   1.99300000e+03 
85.619   2.00100000e+03 
85.604   1.95100000e+03 
85.590   1.92600000e+03 
85.576   2.00700000e+03 
85.562   1.93000000e+03 
85.548   2.00700000e+03 
85.534   1.95300000e+03 
85.520   1.93000000e+03 
85.506   1.98600000e+03 
85.492   1.91800000e+03 
85.478   1.94200000e+03 
85.464   1.93800000e+03 
85.450   1.94700000e+03 
85.436   1.93000000e+03 
85.422   1.88500000e+03 
85.408   1.90000000e+03 
85.394   1.82600000e+03 
85.380   1.92700000e+03 
85.365   1.96600000e+03 
85.351   1.88800000e+03 
85.337   1.93200000e+03 
85.323   1.88800000e+03 
85.309   1.88600000e+03 
85.295   1.92600000e+03 
85.281   1.86400000e+03 
85.267   1.93800000e+03 
85.253   1.90400000e+03 
85.239   1.87100000e+03 
85.225   1.80400000e+03 
85.211   1.86400000e+03 
85.197   1.92300000e+03 
85.183   1.80900000e+03 
85.169   1.85600000e+03 
85.155   1.76600000e+03 
85.141   1.86800000e+03 
85.127   1.87300000e+03 
85.112   1.86800000e+03 
85.098   1.92800000e+03 
85.084   1.89500000e+03 
85.070   1.84100000e+03 
85.056   1.83900000e+03 
85.042   1.94400000e+03 
85.028   1.89900000e+03 
85.014   1.87800000e+03 
85.000   1.83100000e+03 
84.986   1.80700000e+03 
84.972   1.79800000e+03 
84.958   1.78300000e+03 
84.944   1.80700000e+03 
84.930   1.89200000e+03 
84.916   1.83500000e+03 
84.902   1.88000000e+03 
84.888   1.81400000e+03 
84.873   1.87400000e+03 
84.859   1.79300000e+03 
84.845   1.78300000e+03 
84.831   1.83600000e+03 
84.817   1.77600000e+03 
84.803   1.70800000e+03 
84.789   1.79700000e+03 
84.775   1.75000000e+03 
84.761   1.68600000e+03 
84.747   1.80400000e+03 
84.733   1.78000000e+03 
84.719   1.78500000e+03 
84.705   1.72800000e+03 
84.691   1.83400000e+03 
84.677   1.66000000e+03 
84.663   1.65100000e+03 
84.649   1.70800000e+03 
84.635   1.71500000e+03 
84.620   1.66900000e+03 
84.606   1.70100000e+03 
84.592   1.65200000e+03 
84.578   1.68200000e+03 
84.564   1.71300000e+03 
84.550   1.65800000e+03 
84.536   1.65900000e+03 
84.522   1.72400000e+03 
84.508   1.64900000e+03 
84.494   1.69900000e+03 
84.480   1.59700000e+03 
84.466   1.58700000e+03 
84.452   1.63500000e+03 
84.438   1.64500000e+03 
84.424   1.59400000e+03 
84.410   1.57200000e+03 
84.396   1.62500000e+03 
84.381   1.60600000e+03 
84.367   1.60500000e+03 
84.353   1.62400000e+03 
84.339   1.62000000e+03 
84.325   1.52500000e+03 
84.311   1.59400000e+03 
84.297   1.47500000e+03 
84.283   1.57400000e+03 
84.269   1.52900000e+03 
84.255   1.54900000e+03 
84.241   1.57600000e+03 
84.227   1.53500000e+03 
84.213   1.52700000e+03 
84.199   1.52500000e+03 
84.185   1.49400000e+03 
84.171   1.55900000e+03 
84.157   1.45800000e+03 
84.143   1.52300000e+03 
84.128   1.50200000e+03 
84.114   1.43800000e+03 
84.100   1.48700000e+03 
84.086   1.49300000e+03 
84.072   1.44400000e+03 
84.058   1.42400000e+03 
84.044   1.48100000e+03 
84.030   1.47200000e+03 
84.016   1.45700000e+03 
84.002   1.46800000e+03 
83.988   1.44600000e+03 
83.974   1.38100000e+03 
83.960   1.37600000e+03 
83.946   1.45700000e+03 
83.932   1.43400000e+03 
83.918   1.37600000e+03 
83.904   1.43800000e+03 
83.889   1.43700000e+03 
83.875   1.42400000e+03 
83.861   1.41600000e+03 
83.847   1.37800000e+03 
83.833   1.42600000e+03 
83.819   1.35700000e+03 
83.805   1.29200000e+03 
83.791   1.30800000e+03 
83.777   1.42800000e+03 
83.763   1.39200000e+03 
83.749   1.31500000e+03 
83.735   1.30200000e+03 
83.721   1.35800000e+03 
83.707   1.32900000e+03 
83.693   1.37800000e+03 
83.679   1.30700000e+03 
83.665   1.30200000e+03 
83.651   1.34600000e+03 
83.636   1.36500000e+03 
83.622   1.25700000e+03 
83.608   1.39800000e+03 
83.594   1.35900000e+03 
83.580   1.38600000e+03 
83.566   1.37100000e+03 
83.552   1.41600000e+03 
83.538   1.33400000e+03 
83.524   1.48000000e+03 
83.510   1.49300000e+03 
83.496   1.51500000e+03 
83.482   1.58100000e+03 
83.468   1.58000000e+03 
83.454   1.69800000e+03 
83.440   1.67300000e+03 
83.426   1.75900000e+03 
83.412   1.72600000e+03 
83.398   1.72300000e+03 
83.383   1.76900000e+03 
83.369   1.67600000e+03 
83.355   1.50900000e+03 
83.341   1.33000000e+03 
83.327   1.28400000e+03 
83.313   1.13700000e+03 
83.299   1.09300000e+03 
83.285   9.61000000e+02 
83.271   9.22000000e+02 
83.257   8.49000000e+02 
83.243   8.46000000e+02 
83.229   8.50000000e+02 
83.215   8.79000000e+02 
83.201   9.78000000e+02 
83.187   1.06400000e+03 
83.173   1.01500000e+03 
83.159   1.09600000e+03 
83.144   1.18800000e+03 
83.130   1.23500000e+03 
83.116   1.24800000e+03 
83.102   1.18700000e+03 
83.088   1.24400000e+03 
83.074   1.27000000e+03 
83.060   1.25600000e+03 
83.046   1.33100000e+03 
83.032   1.25000000e+03 
83.018   1.28300000e+03 
83.004   1.36800000e+03 
82.990   1.35700000e+03 
82.976   1.29300000e+03 
82.962   1.25500000e+03 
82.948   1.31700000e+03 
82.934   1.25400000e+03 
82.920   1.29700000e+03 
82.906   1.33900000e+03 
82.891   1.21100000e+03 
82.877   1.28900000e+03 
82.863   1.26700000e+03 
82.849   1.27300000e+03 
82.835   1.27600000e+03 
82.821   1.25100000e+03 
82.807   1.30800000e+03 
82.793   1.30100000e+03 
82.779   1.30800000e+03 
82.765   1.24300000e+03 
82.751   1.30600000e+03 
82.737   1.29000000e+03 
82.723   1.29100000e+03 
82.709   1.26700000e+03 
82.695   1.33400000e+03 
82.681   1.25100000e+03 
82.667   1.31800000e+03 
82.652   1.26400000e+03 
82.638   1.23300000e+03 
82.624   1.34000000e+03 
82.610   1.31100000e+03 
82.596   1.26300000e+03 
82.582   1.29600000e+03 
82.568   1.21700000e+03 
82.554   1.22200000e+03 
82.540   1.25600000e+03 
82.526   1.30200000e+03 
82.512   1.23500000e+03 
82.498   1.24700000e+03 
82.484   1.32600000e+03 
82.470   1.24600000e+03 
82.456   1.29600000e+03 
82.442   1.26700000e+03 
82.428   1.26300000e+03 
82.414   1.22700000e+03 
82.399   1.26100000e+03 
82.385   1.26800000e+03 
82.371   1.26300000e+03 
82.357   1.28900000e+03 
82.343   1.19500000e+03 
82.329   1.27100000e+03 
82.315   1.27800000e+03 
82.301   1.15600000e+03 
82.287   1.20200000e+03 
82.273   1.26400000e+03 
82.259   1.16700000e+03 
82.245   1.15800000e+03 
82.231   1.21700000e+03 
82.217   1.20000000e+03 
82.203   1.19600000e+03 
82.189   1.23500000e+03 
82.175   1.23200000e+03 
82.160   1.28000000e+03 
82.146   1.23000000e+03 
82.132   1.18400000e+03 
82.118   1.18400000e+03 
82.104   1.17600000e+03 
82.090   1.19700000e+03 
82.076   1.23800000e+03 
82.062   1.16200000e+03 
82.048   1.18100000e+03 
82.034   1.13300000e+03 
82.020   1.15500000e+03 
82.006   1.17100000e+03 
81.992   1.22800000e+03 
81.978   1.19100000e+03 
81.964   1.22000000e+03 
81.950   1.16000000e+03 
81.936   1.15400000e+03 
81.922   1.17800000e+03 
81.907   1.13500000e+03 
81.893   1.20100000e+03 
81.879   1.10400000e+03 
81.865   1.16200000e+03 
81.851   1.11300000e+03 
81.837   1.16600000e+03 
81.823   1.09500000e+03 
81.809   1.05900000e+03 
81.795   1.10700000e+03 
81.781   1.04900000e+03 
81.767   1.06000000e+03 
81.753   1.19200000e+03 
81.739   1.10700000e+03 
81.725   1.14500000e+03 
81.711   1.19100000e+03 
81.697   1.15000000e+03 
81.683   1.09500000e+03 
81.668   1.05000000e+03 
81.654   1.11000000e+03 
81.640   1.12000000e+03 
81.626   1.06800000e+03 
81.612   1.00500000e+03 
81.598   1.13500000e+03 
81.584   1.09200000e+03 
81.570   1.00800000e+03 
81.556   1.04700000e+03 
81.542   1.02800000e+03 
81.528   1.13100000e+03 
81.514   1.07100000e+03 
81.500   1.10700000e+03 
81.486   1.03500000e+03 
81.472   9.92000000e+02 
81.458   1.00900000e+03 
81.444   1.02500000e+03 
81.430   9.71000000e+02 
81.415   1.00400000e+03 
81.401   1.00600000e+03 
81.387   1.02300000e+03 
81.373   9.85000000e+02 
81.359   1.00000000e+03 
81.345   1.02200000e+03 
81.331   9.70000000e+02 
81.317   9.45000000e+02 
81.303   9.08000000e+02 
81.289   9.46000000e+02 
81.275   9.59000000e+02 
81.261   8.92000000e+02 
81.247   9.40000000e+02 
81.233   9.19000000e+02 
81.219   9.38000000e+02 
81.205   9.11000000e+02 
81.191   9.62000000e+02 
81.176   9.06000000e+02 
81.162   8.95000000e+02 
81.148   8.56000000e+02 
81.134   8.92000000e+02 
81.120   8.79000000e+02 
81.106   8.83000000e+02 
81.092   8.82000000e+02 
81.078   8.26000000e+02 
81.064   8.88000000e+02 
81.050   8.70000000e+02 
81.036   8.78000000e+02 
81.022   8.18000000e+02 
81.008   8.14000000e+02 
