[ Experiment Parameters ]
Experiment Description= <none> 
Number_of_Regions_in_Experiment= 1 

Original_File_name= c:\alexesca\data\97072805.xps 
Instrument= ESCA-West
Date= 07-28-1997
Time=  17:44:07

[ Region 1 Parameters ]
Region_Description = Mn 3p from MnO                     
BEcenter(eV) = 80.000000
BEwidth(eV) = 40.000000
BEstep(eV) = 0.035938
Dwell_Time(sec) = 1.000000
N_o_scans = 1  
N_o_Channels = 1113  
Excitation_Energy = -680564733843252835625198114692998889472.000000  
Scan_mode = 0  (DITHERED)

[ Region 1 Curve ]
BEcenter= 80.000  
BEwidth= -39.953 
Excitation= 1486.600
Time_p_channel= 256.000 
Size= 1113
99.977   3.28000000e+02 
99.941   2.78000000e+02 
99.905   3.19000000e+02 
99.869   3.02000000e+02 
99.833   3.11000000e+02 
99.797   3.31000000e+02 
99.761   3.19000000e+02 
99.725   3.29000000e+02 
99.689   3.11000000e+02 
99.653   3.50000000e+02 
99.617   3.13000000e+02 
99.581   3.47000000e+02 
99.545   3.15000000e+02 
99.509   2.83000000e+02 
99.474   2.94000000e+02 
99.438   2.83000000e+02 
99.402   3.08000000e+02 
99.366   3.19000000e+02 
99.330   3.14000000e+02 
99.294   3.32000000e+02 
99.258   3.46000000e+02 
99.222   3.11000000e+02 
99.186   3.46000000e+02 
99.150   3.21000000e+02 
99.114   3.17000000e+02 
99.078   3.03000000e+02 
99.042   3.19000000e+02 
99.006   3.25000000e+02 
98.971   3.11000000e+02 
98.935   2.99000000e+02 
98.899   3.11000000e+02 
98.863   2.77000000e+02 
98.827   3.31000000e+02 
98.791   3.18000000e+02 
98.755   3.00000000e+02 
98.719   3.23000000e+02 
98.683   3.18000000e+02 
98.647   2.93000000e+02 
98.611   3.16000000e+02 
98.575   3.44000000e+02 
98.539   3.20000000e+02 
98.503   3.10000000e+02 
98.468   2.89000000e+02 
98.432   2.97000000e+02 
98.396   3.06000000e+02 
98.360   3.39000000e+02 
98.324   3.14000000e+02 
98.288   2.96000000e+02 
98.252   3.21000000e+02 
98.216   2.98000000e+02 
98.180   2.96000000e+02 
98.144   2.93000000e+02 
98.108   3.43000000e+02 
98.072   3.30000000e+02 
98.036   2.89000000e+02 
98.000   3.03000000e+02 
97.965   3.29000000e+02 
97.929   3.24000000e+02 
97.893   3.20000000e+02 
97.857   3.21000000e+02 
97.821   3.07000000e+02 
97.785   3.05000000e+02 
97.749   3.11000000e+02 
97.713   3.02000000e+02 
97.677   2.96000000e+02 
97.641   3.03000000e+02 
97.605   3.11000000e+02 
97.569   2.87000000e+02 
97.533   3.19000000e+02 
97.497   3.12000000e+02 
97.462   3.09000000e+02 
97.426   3.33000000e+02 
97.390   2.91000000e+02 
97.354   3.03000000e+02 
97.318   3.14000000e+02 
97.282   3.18000000e+02 
97.246   3.05000000e+02 
97.210   3.21000000e+02 
97.174   3.19000000e+02 
97.138   3.45000000e+02 
97.102   3.39000000e+02 
97.066   3.20000000e+02 
97.030   3.07000000e+02 
96.994   2.92000000e+02 
96.959   3.00000000e+02 
96.923   2.94000000e+02 
96.887   2.84000000e+02 
96.851   3.05000000e+02 
96.815   3.13000000e+02 
96.779   3.03000000e+02 
96.743   3.22000000e+02 
96.707   3.46000000e+02 
96.671   3.06000000e+02 
96.635   3.24000000e+02 
96.599   3.08000000e+02 
96.563   3.08000000e+02 
96.527   3.12000000e+02 
96.491   2.96000000e+02 
96.456   3.07000000e+02 
96.420   3.31000000e+02 
96.384   3.44000000e+02 
96.348   3.20000000e+02 
96.312   3.28000000e+02 
96.276   2.81000000e+02 
96.240   2.97000000e+02 
96.204   3.08000000e+02 
96.168   3.19000000e+02 
96.132   3.19000000e+02 
96.096   3.07000000e+02 
96.060   2.92000000e+02 
96.024   2.91000000e+02 
95.988   3.42000000e+02 
95.953   3.59000000e+02 
95.917   3.00000000e+02 
95.881   2.98000000e+02 
95.845   3.28000000e+02 
95.809   3.09000000e+02 
95.773   3.48000000e+02 
95.737   2.87000000e+02 
95.701   3.12000000e+02 
95.665   3.24000000e+02 
95.629   3.06000000e+02 
95.593   3.30000000e+02 
95.557   3.23000000e+02 
95.521   3.45000000e+02 
95.485   3.01000000e+02 
95.449   3.37000000e+02 
95.414   2.85000000e+02 
95.378   3.00000000e+02 
95.342   3.21000000e+02 
95.306   3.17000000e+02 
95.270   3.35000000e+02 
95.234   3.36000000e+02 
95.198   3.29000000e+02 
95.162   3.08000000e+02 
95.126   3.24000000e+02 
95.090   3.34000000e+02 
95.054   2.90000000e+02 
95.018   3.16000000e+02 
94.982   3.31000000e+02 
94.946   2.95000000e+02 
94.911   3.34000000e+02 
94.875   3.38000000e+02 
94.839   2.90000000e+02 
94.803   3.11000000e+02 
94.767   3.19000000e+02 
94.731   3.38000000e+02 
94.695   3.48000000e+02 
94.659   3.09000000e+02 
94.623   3.12000000e+02 
94.587   3.36000000e+02 
94.551   3.33000000e+02 
94.515   3.20000000e+02 
94.479   2.93000000e+02 
94.443   3.14000000e+02 
94.408   3.24000000e+02 
94.372   3.28000000e+02 
94.336   3.02000000e+02 
94.300   3.14000000e+02 
94.264   3.03000000e+02 
94.228   3.18000000e+02 
94.192   3.09000000e+02 
94.156   3.18000000e+02 
94.120   3.36000000e+02 
94.084   3.23000000e+02 
94.048   3.20000000e+02 
94.012   2.99000000e+02 
93.976   3.19000000e+02 
93.940   3.38000000e+02 
93.905   2.82000000e+02 
93.869   3.30000000e+02 
93.833   3.27000000e+02 
93.797   3.30000000e+02 
93.761   3.03000000e+02 
93.725   2.98000000e+02 
93.689   3.06000000e+02 
93.653   3.18000000e+02 
93.617   3.10000000e+02 
93.581   3.36000000e+02 
93.545   2.75000000e+02 
93.509   3.34000000e+02 
93.473   3.49000000e+02 
93.437   3.15000000e+02 
93.402   3.45000000e+02 
93.366   3.00000000e+02 
93.330   3.48000000e+02 
93.294   3.24000000e+02 
93.258   3.33000000e+02 
93.222   3.24000000e+02 
93.186   3.28000000e+02 
93.150   3.22000000e+02 
93.114   3.46000000e+02 
93.078   3.41000000e+02 
93.042   3.62000000e+02 
93.006   2.86000000e+02 
92.970   2.98000000e+02 
92.934   3.48000000e+02 
92.899   3.16000000e+02 
92.863   3.46000000e+02 
92.827   3.06000000e+02 
92.791   3.62000000e+02 
92.755   3.06000000e+02 
92.719   3.20000000e+02 
92.683   3.40000000e+02 
92.647   3.18000000e+02 
92.611   3.38000000e+02 
92.575   3.25000000e+02 
92.539   3.38000000e+02 
92.503   3.42000000e+02 
92.467   3.39000000e+02 
92.431   3.61000000e+02 
92.396   3.20000000e+02 
92.360   3.62000000e+02 
92.324   3.42000000e+02 
92.288   3.48000000e+02 
92.252   3.29000000e+02 
92.216   3.45000000e+02 
92.180   3.35000000e+02 
92.144   3.30000000e+02 
92.108   3.41000000e+02 
92.072   3.53000000e+02 
92.036   3.50000000e+02 
92.000   3.62000000e+02 
91.964   3.49000000e+02 
91.928   3.71000000e+02 
91.893   3.37000000e+02 
91.857   3.51000000e+02 
91.821   3.41000000e+02 
91.785   3.68000000e+02 
91.749   4.00000000e+02 
91.713   3.48000000e+02 
91.677   3.85000000e+02 
91.641   3.48000000e+02 
91.605   3.70000000e+02 
91.569   3.36000000e+02 
91.533   3.71000000e+02 
91.497   3.75000000e+02 
91.461   3.73000000e+02 
91.425   4.00000000e+02 
91.390   3.30000000e+02 
91.354   3.74000000e+02 
91.318   3.90000000e+02 
91.282   3.51000000e+02 
91.246   3.92000000e+02 
91.210   3.70000000e+02 
91.174   3.68000000e+02 
91.138   3.77000000e+02 
91.102   3.59000000e+02 
91.066   4.09000000e+02 
91.030   3.77000000e+02 
90.994   4.00000000e+02 
90.958   4.28000000e+02 
90.922   3.70000000e+02 
90.887   3.46000000e+02 
90.851   3.92000000e+02 
90.815   3.79000000e+02 
90.779   3.61000000e+02 
90.743   3.87000000e+02 
90.707   3.89000000e+02 
90.671   4.10000000e+02 
90.635   4.19000000e+02 
90.599   3.94000000e+02 
90.563   3.86000000e+02 
90.527   3.91000000e+02 
90.491   3.59000000e+02 
90.455   4.08000000e+02 
90.419   3.76000000e+02 
90.384   3.60000000e+02 
90.348   3.81000000e+02 
90.312   3.73000000e+02 
90.276   4.12000000e+02 
90.240   3.75000000e+02 
90.204   3.81000000e+02 
90.168   3.78000000e+02 
90.132   3.70000000e+02 
90.096   3.83000000e+02 
90.060   3.58000000e+02 
90.024   3.49000000e+02 
89.988   4.04000000e+02 
89.952   3.10000000e+02 
89.916   3.39000000e+02 
89.880   3.36000000e+02 
89.845   3.76000000e+02 
89.809   3.42000000e+02 
89.773   3.77000000e+02 
89.737   3.53000000e+02 
89.701   3.64000000e+02 
89.665   3.71000000e+02 
89.629   3.55000000e+02 
89.593   3.16000000e+02 
89.557   3.53000000e+02 
89.521   3.42000000e+02 
89.485   3.09000000e+02 
89.449   3.48000000e+02 
89.413   3.42000000e+02 
89.377   3.72000000e+02 
89.342   3.37000000e+02 
89.306   3.28000000e+02 
89.270   3.19000000e+02 
89.234   3.69000000e+02 
89.198   3.13000000e+02 
89.162   3.05000000e+02 
89.126   3.34000000e+02 
89.090   3.22000000e+02 
89.054   3.10000000e+02 
89.018   3.36000000e+02 
88.982   3.23000000e+02 
88.946   3.16000000e+02 
88.910   3.31000000e+02 
88.874   3.27000000e+02 
88.839   3.33000000e+02 
88.803   2.86000000e+02 
88.767   3.25000000e+02 
88.731   3.31000000e+02 
88.695   2.95000000e+02 
88.659   3.23000000e+02 
88.623   2.97000000e+02 
88.587   3.01000000e+02 
88.551   2.99000000e+02 
88.515   3.35000000e+02 
88.479   3.32000000e+02 
88.443   3.13000000e+02 
88.407   3.01000000e+02 
88.371   2.97000000e+02 
88.336   3.28000000e+02 
88.300   3.17000000e+02 
88.264   3.43000000e+02 
88.228   3.29000000e+02 
88.192   3.12000000e+02 
88.156   3.07000000e+02 
88.120   2.96000000e+02 
88.084   3.09000000e+02 
88.048   3.16000000e+02 
88.012   3.35000000e+02 
87.976   3.19000000e+02 
87.940   3.18000000e+02 
87.904   2.99000000e+02 
87.868   3.44000000e+02 
87.833   3.20000000e+02 
87.797   3.26000000e+02 
87.761   3.28000000e+02 
87.725   3.43000000e+02 
87.689   3.20000000e+02 
87.653   2.85000000e+02 
87.617   3.40000000e+02 
87.581   2.87000000e+02 
87.545   3.48000000e+02 
87.509   3.41000000e+02 
87.473   3.39000000e+02 
87.437   3.65000000e+02 
87.401   3.09000000e+02 
87.365   3.22000000e+02 
87.330   3.56000000e+02 
87.294   3.09000000e+02 
87.258   2.91000000e+02 
87.222   3.33000000e+02 
87.186   3.31000000e+02 
87.150   3.13000000e+02 
87.114   3.54000000e+02 
87.078   3.31000000e+02 
87.042   3.00000000e+02 
87.006   3.44000000e+02 
86.970   3.85000000e+02 
86.934   3.32000000e+02 
86.898   3.51000000e+02 
86.862   3.04000000e+02 
86.827   3.57000000e+02 
86.791   3.30000000e+02 
86.755   3.34000000e+02 
86.719   3.20000000e+02 
86.683   3.64000000e+02 
86.647   3.64000000e+02 
86.611   3.59000000e+02 
86.575   3.27000000e+02 
86.539   3.49000000e+02 
86.503   3.77000000e+02 
86.467   3.63000000e+02 
86.431   3.53000000e+02 
86.395   3.63000000e+02 
86.359   3.51000000e+02 
86.324   3.56000000e+02 
86.288   3.40000000e+02 
86.252   3.53000000e+02 
86.216   3.37000000e+02 
86.180   3.87000000e+02 
86.144   3.77000000e+02 
86.108   3.40000000e+02 
86.072   3.74000000e+02 
86.036   3.66000000e+02 
86.000   3.74000000e+02 
85.964   3.81000000e+02 
85.928   4.05000000e+02 
85.892   3.93000000e+02 
85.856   3.94000000e+02 
85.821   3.89000000e+02 
85.785   3.52000000e+02 
85.749   3.76000000e+02 
85.713   3.78000000e+02 
85.677   3.87000000e+02 
85.641   4.20000000e+02 
85.605   3.90000000e+02 
85.569   4.03000000e+02 
85.533   3.99000000e+02 
85.497   3.95000000e+02 
85.461   3.97000000e+02 
85.425   4.10000000e+02 
85.389   4.00000000e+02 
85.353   4.34000000e+02 
85.318   3.86000000e+02 
85.282   3.70000000e+02 
85.246   4.04000000e+02 
85.210   4.28000000e+02 
85.174   4.17000000e+02 
85.138   4.30000000e+02 
85.102   4.07000000e+02 
85.066   4.30000000e+02 
85.030   4.27000000e+02 
84.994   4.32000000e+02 
84.958   4.27000000e+02 
84.922   4.68000000e+02 
84.886   4.18000000e+02 
84.850   4.42000000e+02 
84.814   4.27000000e+02 
84.779   4.09000000e+02 
84.743   4.12000000e+02 
84.707   4.44000000e+02 
84.671   4.30000000e+02 
84.635   4.44000000e+02 
84.599   4.12000000e+02 
84.563   4.26000000e+02 
84.527   4.32000000e+02 
84.491   4.34000000e+02 
84.455   4.32000000e+02 
84.419   4.68000000e+02 
84.383   4.34000000e+02 
84.347   4.41000000e+02 
84.311   3.83000000e+02 
84.276   4.08000000e+02 
84.240   3.89000000e+02 
84.204   4.16000000e+02 
84.168   4.45000000e+02 
84.132   4.02000000e+02 
84.096   4.12000000e+02 
84.060   3.88000000e+02 
84.024   3.78000000e+02 
83.988   3.58000000e+02 
83.952   4.10000000e+02 
83.916   4.13000000e+02 
83.880   3.86000000e+02 
83.844   3.95000000e+02 
83.808   3.52000000e+02 
83.773   3.91000000e+02 
83.737   3.54000000e+02 
83.701   3.53000000e+02 
83.665   3.70000000e+02 
83.629   3.55000000e+02 
83.593   3.53000000e+02 
83.557   3.42000000e+02 
83.521   3.43000000e+02 
83.485   3.42000000e+02 
83.449   3.42000000e+02 
83.413   3.60000000e+02 
83.377   3.49000000e+02 
83.341   3.44000000e+02 
83.305   3.40000000e+02 
83.270   3.27000000e+02 
83.234   3.19000000e+02 
83.198   3.30000000e+02 
83.162   3.04000000e+02 
83.126   2.96000000e+02 
83.090   3.41000000e+02 
83.054   3.39000000e+02 
83.018   3.17000000e+02 
82.982   3.23000000e+02 
82.946   3.05000000e+02 
82.910   3.27000000e+02 
82.874   3.21000000e+02 
82.838   3.40000000e+02 
82.802   3.29000000e+02 
82.767   2.99000000e+02 
82.731   2.74000000e+02 
82.695   3.53000000e+02 
82.659   2.81000000e+02 
82.623   3.11000000e+02 
82.587   3.00000000e+02 
82.551   2.99000000e+02 
82.515   2.93000000e+02 
82.479   3.17000000e+02 
82.443   2.87000000e+02 
82.407   3.01000000e+02 
82.371   2.80000000e+02 
82.335   3.04000000e+02 
82.299   2.75000000e+02 
82.264   3.02000000e+02 
82.228   3.14000000e+02 
82.192   3.04000000e+02 
82.156   2.86000000e+02 
82.120   2.79000000e+02 
82.084   3.30000000e+02 
82.048   3.21000000e+02 
82.012   2.77000000e+02 
81.976   2.87000000e+02 
81.940   2.79000000e+02 
81.904   3.13000000e+02 
81.868   2.91000000e+02 
81.832   2.84000000e+02 
81.796   2.88000000e+02 
81.761   2.88000000e+02 
81.725   3.04000000e+02 
81.689   2.90000000e+02 
81.653   3.04000000e+02 
81.617   3.06000000e+02 
81.581   2.87000000e+02 
81.545   2.64000000e+02 
81.509   2.73000000e+02 
81.473   2.77000000e+02 
81.437   2.68000000e+02 
81.401   2.83000000e+02 
81.365   2.92000000e+02 
81.329   2.67000000e+02 
81.293   2.61000000e+02 
81.258   2.83000000e+02 
81.222   2.78000000e+02 
81.186   2.92000000e+02 
81.150   2.39000000e+02 
81.114   2.61000000e+02 
81.078   2.64000000e+02 
81.042   3.05000000e+02 
81.006   3.00000000e+02 
80.970   2.73000000e+02 
80.934   2.80000000e+02 
80.898   2.78000000e+02 
80.862   2.83000000e+02 
80.826   2.70000000e+02 
80.790   2.96000000e+02 
80.755   2.83000000e+02 
80.719   2.77000000e+02 
80.683   2.80000000e+02 
80.647   2.88000000e+02 
80.611   2.85000000e+02 
80.575   2.80000000e+02 
80.539   3.03000000e+02 
80.503   2.72000000e+02 
80.467   2.83000000e+02 
80.431   2.88000000e+02 
80.395   2.67000000e+02 
80.359   2.89000000e+02 
80.323   2.57000000e+02 
80.287   2.65000000e+02 
80.252   2.96000000e+02 
80.216   2.58000000e+02 
80.180   2.62000000e+02 
80.144   3.19000000e+02 
80.108   2.52000000e+02 
80.072   2.53000000e+02 
80.036   2.47000000e+02 
80.000   2.54000000e+02 
79.964   2.46000000e+02 
79.928   2.77000000e+02 
79.892   2.62000000e+02 
79.856   2.64000000e+02 
79.820   2.77000000e+02 
79.784   2.54000000e+02 
79.748   2.58000000e+02 
79.713   2.81000000e+02 
79.677   2.55000000e+02 
79.641   2.50000000e+02 
79.605   2.72000000e+02 
79.569   2.86000000e+02 
79.533   2.80000000e+02 
79.497   2.86000000e+02 
79.461   2.84000000e+02 
79.425   2.68000000e+02 
79.389   2.60000000e+02 
79.353   2.75000000e+02 
79.317   2.68000000e+02 
79.281   2.57000000e+02 
79.245   2.50000000e+02 
79.210   2.67000000e+02 
79.174   2.73000000e+02 
79.138   2.69000000e+02 
79.102   2.74000000e+02 
79.066   2.46000000e+02 
79.030   2.86000000e+02 
78.994   2.86000000e+02 
78.958   2.87000000e+02 
78.922   2.98000000e+02 
78.886   2.59000000e+02 
78.850   2.70000000e+02 
78.814   2.86000000e+02 
78.778   2.51000000e+02 
78.742   2.88000000e+02 
78.707   2.87000000e+02 
78.671   2.58000000e+02 
78.635   2.77000000e+02 
78.599   2.74000000e+02 
78.563   2.78000000e+02 
78.527   2.80000000e+02 
78.491   2.75000000e+02 
78.455   2.61000000e+02 
78.419   2.72000000e+02 
78.383   2.47000000e+02 
78.347   2.76000000e+02 
78.311   2.86000000e+02 
78.275   2.71000000e+02 
78.239   2.90000000e+02 
78.204   2.49000000e+02 
78.168   2.76000000e+02 
78.132   2.89000000e+02 
78.096   2.73000000e+02 
78.060   2.49000000e+02 
78.024   2.58000000e+02 
77.988   2.69000000e+02 
77.952   3.06000000e+02 
77.916   2.66000000e+02 
77.880   3.07000000e+02 
77.844   2.54000000e+02 
77.808   2.28000000e+02 
77.772   2.97000000e+02 
77.736   2.79000000e+02 
77.701   2.80000000e+02 
77.665   2.61000000e+02 
77.629   2.78000000e+02 
77.593   2.68000000e+02 
77.557   2.63000000e+02 
77.521   2.86000000e+02 
77.485   2.58000000e+02 
77.449   2.47000000e+02 
77.413   3.08000000e+02 
77.377   2.75000000e+02 
77.341   2.73000000e+02 
77.305   2.43000000e+02 
77.269   2.37000000e+02 
77.233   2.76000000e+02 
77.198   2.49000000e+02 
77.162   2.44000000e+02 
77.126   2.67000000e+02 
77.090   2.84000000e+02 
77.054   2.79000000e+02 
77.018   2.65000000e+02 
76.982   2.63000000e+02 
76.946   2.83000000e+02 
76.910   2.66000000e+02 
76.874   2.45000000e+02 
76.838   2.73000000e+02 
76.802   2.89000000e+02 
76.766   2.73000000e+02 
76.730   2.64000000e+02 
76.695   2.70000000e+02 
76.659   2.62000000e+02 
76.623   2.66000000e+02 
76.587   2.61000000e+02 
76.551   2.79000000e+02 
76.515   2.76000000e+02 
76.479   2.97000000e+02 
76.443   2.39000000e+02 
76.407   2.73000000e+02 
76.371   2.97000000e+02 
76.335   2.70000000e+02 
76.299   2.56000000e+02 
76.263   3.04000000e+02 
76.227   2.79000000e+02 
76.192   2.82000000e+02 
76.156   2.81000000e+02 
76.120   2.55000000e+02 
76.084   2.72000000e+02 
76.048   2.54000000e+02 
76.012   2.73000000e+02 
75.976   2.90000000e+02 
75.940   2.72000000e+02 
75.904   2.62000000e+02 
75.868   2.56000000e+02 
75.832   2.63000000e+02 
75.796   2.57000000e+02 
75.760   2.50000000e+02 
75.724   3.08000000e+02 
75.689   2.76000000e+02 
75.653   2.61000000e+02 
75.617   2.52000000e+02 
75.581   2.80000000e+02 
75.545   2.88000000e+02 
75.509   2.59000000e+02 
75.473   2.71000000e+02 
75.437   3.01000000e+02 
75.401   2.33000000e+02 
75.365   3.11000000e+02 
75.329   2.91000000e+02 
75.293   2.84000000e+02 
75.257   2.64000000e+02 
75.221   2.80000000e+02 
75.186   2.55000000e+02 
75.150   2.86000000e+02 
75.114   2.78000000e+02 
75.078   2.95000000e+02 
75.042   3.07000000e+02 
75.006   2.74000000e+02 
74.970   2.69000000e+02 
74.934   2.77000000e+02 
74.898   2.56000000e+02 
74.862   2.86000000e+02 
74.826   2.74000000e+02 
74.790   3.25000000e+02 
74.754   2.54000000e+02 
74.718   2.86000000e+02 
74.682   2.69000000e+02 
74.647   2.69000000e+02 
74.611   2.61000000e+02 
74.575   2.79000000e+02 
74.539   2.89000000e+02 
74.503   2.80000000e+02 
74.467   2.81000000e+02 
74.431   2.87000000e+02 
74.395   2.63000000e+02 
74.359   2.71000000e+02 
74.323   2.77000000e+02 
74.287   2.52000000e+02 
74.251   2.64000000e+02 
74.215   2.65000000e+02 
74.179   2.90000000e+02 
74.144   2.77000000e+02 
74.108   2.77000000e+02 
74.072   2.44000000e+02 
74.036   2.87000000e+02 
74.000   2.61000000e+02 
73.964   2.68000000e+02 
73.928   2.80000000e+02 
73.892   3.00000000e+02 
73.856   2.73000000e+02 
73.820   3.16000000e+02 
73.784   3.01000000e+02 
73.748   2.76000000e+02 
73.712   2.87000000e+02 
73.676   2.60000000e+02 
73.641   2.70000000e+02 
73.605   2.74000000e+02 
73.569   2.87000000e+02 
73.533   2.42000000e+02 
73.497   2.61000000e+02 
73.461   3.11000000e+02 
73.425   2.83000000e+02 
73.389   2.66000000e+02 
73.353   3.06000000e+02 
73.317   2.45000000e+02 
73.281   2.53000000e+02 
