[ Experiment Parameters ]
Experiment Description= <none> 
Number_of_Regions_in_Experiment= 1 

Original_File_name= c:\alexesca\data\97072201.xps 
Instrument= ESCA-West
Date= 07-22-1997
Time=  11:57:04

[ Region 1 Parameters ]
Region_Description = au 4f dithered                     
BEcenter(eV) = 85.500000
BEwidth(eV) = 10.000000
BEstep(eV) = 0.107813
Dwell_Time(sec) = 0.500000
N_o_scans = 2  
N_o_Channels = 93  
Excitation_Energy = 0.000000  
Scan_mode = 0  (DITHERED)

[ Region 1 Curve ]
BEcenter= 85.500  
BEwidth= -9.898  
Excitation= 1486.600
Time_p_channel= 85.333  
Size= 93
90.449   8.37000000e+02 
90.342   7.93000000e+02 
90.234   8.08000000e+02 
90.126   8.00000000e+02 
90.019   8.19000000e+02 
89.911   8.22000000e+02 
89.804   8.45000000e+02 
89.696   7.92000000e+02 
89.588   9.05000000e+02 
89.481   8.84000000e+02 
89.373   8.32000000e+02 
89.266   8.73000000e+02 
89.158   8.40000000e+02 
89.051   9.36000000e+02 
88.943   9.65000000e+02 
88.835   1.00800000e+03 
88.728   1.09300000e+03 
88.620   1.10700000e+03 
88.513   1.18600000e+03 
88.405   1.32300000e+03 
88.297   1.50200000e+03 
88.190   1.69300000e+03 
88.082   1.86900000e+03 
87.975   2.17900000e+03 
87.867   2.56800000e+03 
87.759   2.92800000e+03 
87.652   3.32400000e+03 
87.544   3.70700000e+03 
87.437   4.16100000e+03 
87.329   4.49200000e+03 
87.221   4.82400000e+03 
87.114   4.46700000e+03 
87.006   4.22800000e+03 
86.899   3.48100000e+03 
86.791   2.79400000e+03 
86.684   2.23900000e+03 
86.576   1.79300000e+03 
86.468   1.41400000e+03 
86.361   1.23100000e+03 
86.253   1.07200000e+03 
86.146   9.53000000e+02 
86.038   9.36000000e+02 
85.930   8.67000000e+02 
85.823   9.59000000e+02 
85.715   9.11000000e+02 
85.608   8.54000000e+02 
85.500   8.39000000e+02 
85.392   8.90000000e+02 
85.285   9.27000000e+02 
85.177   9.97000000e+02 
85.070   1.02200000e+03 
84.962   1.10200000e+03 
84.854   1.27900000e+03 
84.747   1.27700000e+03 
84.639   1.59100000e+03 
84.532   1.80400000e+03 
84.424   2.07700000e+03 
84.316   2.53800000e+03 
84.209   2.86200000e+03 
84.101   3.45800000e+03 
83.994   4.07700000e+03 
83.886   4.53900000e+03 
83.779   5.01400000e+03 
83.671   5.64600000e+03 
83.563   5.60500000e+03 
83.456   5.71500000e+03 
83.348   4.88600000e+03 
83.241   4.07000000e+03 
83.133   3.03100000e+03 
83.025   2.30800000e+03 
82.918   1.69100000e+03 
82.810   1.33000000e+03 
82.703   1.03300000e+03 
82.595   9.11000000e+02 
82.487   7.48000000e+02 
82.380   6.37000000e+02 
82.272   6.08000000e+02 
82.165   5.30000000e+02 
82.057   5.20000000e+02 
81.949   4.45000000e+02 
81.842   4.60000000e+02 
81.734   4.29000000e+02 
81.627   4.25000000e+02 
81.519   4.00000000e+02 
81.412   4.15000000e+02 
81.304   3.48000000e+02 
81.196   3.73000000e+02 
81.089   3.69000000e+02 
80.981   3.71000000e+02 
80.874   3.79000000e+02 
80.766   3.31000000e+02 
80.658   3.72000000e+02 
80.551   3.36000000e+02 
