[ Experiment Parameters ]
Experiment Description= <none> 
Number_of_Regions_in_Experiment= 1 

Original_File_name= c:\alexesca\data\97071504.xps 
Instrument= ESCA-West
Date= 07-15-1997
Time=  18:04:19

[ Region 1 Parameters ]
Region_Description = survey                             
BEcenter(eV) = 500.000000
BEwidth(eV) = 1000.000000
BEstep(eV) = 0.898438
Dwell_Time(sec) = 1.500000
N_o_scans = 1  
N_o_Channels = 1113  
Excitation_Energy = 0.000000  
Scan_mode = 0  (DITHERED)

[ Region 1 Curve ]
BEcenter= 500.000 
BEwidth= -998.828
Excitation= 1486.600
Time_p_channel= 9600.000
Size= 1113
999.414  6.39000000e+03 
998.516  6.21200000e+03 
997.618  6.22000000e+03 
996.719  6.32700000e+03 
995.821  6.20600000e+03 
994.923  6.20700000e+03 
994.025  6.27400000e+03 
993.126  6.29300000e+03 
992.228  6.15700000e+03 
991.330  6.13200000e+03 
990.432  6.25600000e+03 
989.534  6.09600000e+03 
988.635  6.09000000e+03 
987.737  6.00000000e+03 
986.839  5.95600000e+03 
985.941  6.01000000e+03 
985.042  6.02000000e+03 
984.144  5.96000000e+03 
983.246  6.04100000e+03 
982.348  5.83400000e+03 
981.450  5.93000000e+03 
980.551  5.80000000e+03 
979.653  5.94600000e+03 
978.755  5.85800000e+03 
977.857  5.76100000e+03 
976.958  5.72800000e+03 
976.060  5.85800000e+03 
975.162  5.79900000e+03 
974.264  5.69000000e+03 
973.365  5.75300000e+03 
972.467  5.67800000e+03 
971.569  5.64200000e+03 
970.671  5.65100000e+03 
969.773  5.51100000e+03 
968.874  5.39800000e+03 
967.976  5.54200000e+03 
967.078  5.24600000e+03 
966.180  5.44100000e+03 
965.281  5.38500000e+03 
964.383  5.31000000e+03 
963.485  5.37700000e+03 
962.587  5.36300000e+03 
961.689  5.39200000e+03 
960.790  5.35400000e+03 
959.892  5.37500000e+03 
958.994  5.37600000e+03 
958.096  5.34100000e+03 
957.197  5.37400000e+03 
956.299  5.18700000e+03 
955.401  5.28500000e+03 
954.503  5.32400000e+03 
953.604  5.40500000e+03 
952.706  5.37800000e+03 
951.808  5.23700000e+03 
950.910  5.18300000e+03 
950.012  5.06400000e+03 
949.113  4.99400000e+03 
948.215  5.02500000e+03 
947.317  4.85000000e+03 
946.419  4.89900000e+03 
945.520  4.89300000e+03 
944.622  4.89100000e+03 
943.724  4.75100000e+03 
942.826  4.77700000e+03 
941.928  4.73200000e+03 
941.029  4.66300000e+03 
940.131  4.83300000e+03 
939.233  4.88000000e+03 
938.335  4.71700000e+03 
937.436  4.72400000e+03 
936.538  4.73400000e+03 
935.640  4.68000000e+03 
934.742  4.74600000e+03 
933.844  4.66600000e+03 
932.945  4.60100000e+03 
932.047  4.49500000e+03 
931.149  4.46400000e+03 
930.251  4.45900000e+03 
929.352  4.49200000e+03 
928.454  4.35300000e+03 
927.556  4.44900000e+03 
926.658  4.36700000e+03 
925.759  4.38400000e+03 
924.861  4.43700000e+03 
923.963  4.31900000e+03 
923.065  4.34300000e+03 
922.167  4.19600000e+03 
921.268  4.23200000e+03 
920.370  4.33300000e+03 
919.472  4.31200000e+03 
918.574  4.38700000e+03 
917.675  4.23800000e+03 
916.777  4.35300000e+03 
915.879  4.27600000e+03 
914.981  4.24800000e+03 
914.083  4.31900000e+03 
913.184  4.31200000e+03 
912.286  4.35300000e+03 
911.388  4.36000000e+03 
910.490  4.32100000e+03 
909.591  4.25100000e+03 
908.693  4.24400000e+03 
907.795  4.22300000e+03 
906.897  4.37600000e+03 
905.998  4.35900000e+03 
905.100  4.36400000e+03 
904.202  4.29200000e+03 
903.304  4.39700000e+03 
902.406  4.23000000e+03 
901.507  4.20000000e+03 
900.609  4.39100000e+03 
899.711  4.35400000e+03 
898.813  4.22800000e+03 
897.914  4.32200000e+03 
897.016  4.24500000e+03 
896.118  4.12100000e+03 
895.220  4.29200000e+03 
894.322  4.18700000e+03 
893.423  4.41400000e+03 
892.525  4.23900000e+03 
891.627  4.31400000e+03 
890.729  4.26200000e+03 
889.830  4.29700000e+03 
888.932  4.24300000e+03 
888.034  4.15900000e+03 
887.136  4.11700000e+03 
886.237  4.27500000e+03 
885.339  4.09600000e+03 
884.441  4.21100000e+03 
883.543  4.21000000e+03 
882.645  4.14500000e+03 
881.746  4.23400000e+03 
880.848  4.17700000e+03 
879.950  4.17100000e+03 
879.052  4.09600000e+03 
878.153  4.16600000e+03 
877.255  4.14700000e+03 
876.357  4.19200000e+03 
875.459  4.10100000e+03 
874.561  4.19200000e+03 
873.662  4.25700000e+03 
872.764  4.16900000e+03 
871.866  4.13900000e+03 
870.968  4.13500000e+03 
870.069  4.17200000e+03 
869.171  4.15600000e+03 
868.273  4.11600000e+03 
867.375  4.13300000e+03 
866.477  4.20900000e+03 
865.578  4.14800000e+03 
864.680  4.12200000e+03 
863.782  4.14400000e+03 
862.884  4.11300000e+03 
861.985  4.22000000e+03 
861.087  4.20400000e+03 
860.189  4.02100000e+03 
859.291  4.19900000e+03 
858.392  4.18600000e+03 
857.494  4.14800000e+03 
856.596  4.17000000e+03 
855.698  4.18200000e+03 
854.800  4.16400000e+03 
853.901  4.20200000e+03 
853.003  4.17600000e+03 
852.105  4.15400000e+03 
851.207  4.09100000e+03 
850.308  4.16900000e+03 
849.410  4.18100000e+03 
848.512  4.17900000e+03 
847.614  4.08300000e+03 
846.716  4.10900000e+03 
845.817  4.03000000e+03 
844.919  4.24400000e+03 
844.021  4.14400000e+03 
843.123  4.01000000e+03 
842.224  4.14000000e+03 
841.326  4.05100000e+03 
840.428  4.12800000e+03 
839.530  4.10700000e+03 
838.631  4.13900000e+03 
837.733  4.08900000e+03 
836.835  4.20100000e+03 
835.937  4.18000000e+03 
835.039  4.13600000e+03 
834.140  4.13900000e+03 
833.242  4.10200000e+03 
832.344  4.12800000e+03 
831.446  4.04300000e+03 
830.547  4.28700000e+03 
829.649  4.04400000e+03 
828.751  4.12700000e+03 
827.853  4.05800000e+03 
826.955  4.17700000e+03 
826.056  4.17000000e+03 
825.158  4.19900000e+03 
824.260  4.24300000e+03 
823.362  4.21400000e+03 
822.463  4.00900000e+03 
821.565  4.07900000e+03 
820.667  4.18800000e+03 
819.769  4.17500000e+03 
818.870  4.03700000e+03 
817.972  4.26800000e+03 
817.074  4.24100000e+03 
816.176  4.04500000e+03 
815.278  4.17400000e+03 
814.379  4.18500000e+03 
813.481  4.08600000e+03 
812.583  4.15600000e+03 
811.685  4.17800000e+03 
810.786  4.21500000e+03 
809.888  4.08600000e+03 
808.990  4.21000000e+03 
808.092  4.06100000e+03 
807.194  4.15400000e+03 
806.295  4.19200000e+03 
805.397  4.04900000e+03 
804.499  4.22200000e+03 
803.601  4.16900000e+03 
802.702  4.08400000e+03 
801.804  4.17500000e+03 
800.906  4.22900000e+03 
800.008  4.11600000e+03 
799.110  4.20500000e+03 
798.211  4.13600000e+03 
797.313  4.16600000e+03 
796.415  4.13300000e+03 
795.517  4.07800000e+03 
794.618  4.12900000e+03 
793.720  4.15400000e+03 
792.822  4.14700000e+03 
791.924  4.16200000e+03 
791.025  4.10900000e+03 
790.127  4.20400000e+03 
789.229  4.20100000e+03 
788.331  4.08400000e+03 
787.433  4.08100000e+03 
786.534  4.13100000e+03 
785.636  4.10500000e+03 
784.738  4.04300000e+03 
783.840  4.05400000e+03 
782.941  4.09400000e+03 
782.043  4.13600000e+03 
781.145  4.09900000e+03 
780.247  4.09400000e+03 
779.349  4.22100000e+03 
778.450  4.15300000e+03 
777.552  4.09400000e+03 
776.654  4.04600000e+03 
775.756  4.21800000e+03 
774.857  4.13200000e+03 
773.959  4.11700000e+03 
773.061  4.07600000e+03 
772.163  4.10100000e+03 
771.264  4.07300000e+03 
770.366  4.23800000e+03 
769.468  4.08300000e+03 
768.570  4.15000000e+03 
767.672  4.10500000e+03 
766.773  4.13600000e+03 
765.875  4.05100000e+03 
764.977  3.98700000e+03 
764.079  4.06400000e+03 
763.180  4.15000000e+03 
762.282  4.08100000e+03 
761.384  4.01400000e+03 
760.486  4.08100000e+03 
759.588  4.00600000e+03 
758.689  4.01500000e+03 
757.791  4.06800000e+03 
756.893  4.05900000e+03 
755.995  4.12700000e+03 
755.096  4.08800000e+03 
754.198  4.07400000e+03 
753.300  4.23000000e+03 
752.402  4.07600000e+03 
751.503  3.99400000e+03 
750.605  4.06000000e+03 
749.707  3.95500000e+03 
748.809  4.05600000e+03 
747.911  4.10200000e+03 
747.012  4.08500000e+03 
746.114  4.14300000e+03 
745.216  4.04200000e+03 
744.318  3.99800000e+03 
743.419  3.85800000e+03 
742.521  3.93500000e+03 
741.623  4.07100000e+03 
740.725  4.18600000e+03 
739.827  4.04400000e+03 
738.928  4.07400000e+03 
738.030  4.12000000e+03 
737.132  4.04900000e+03 
736.234  4.19400000e+03 
735.335  3.96800000e+03 
734.437  4.04000000e+03 
733.539  4.12000000e+03 
732.641  4.06500000e+03 
731.742  4.10300000e+03 
730.844  4.05200000e+03 
729.946  4.04700000e+03 
729.048  4.10500000e+03 
728.150  3.82600000e+03 
727.251  4.08100000e+03 
726.353  4.06800000e+03 
725.455  4.07500000e+03 
724.557  4.08600000e+03 
723.658  3.95300000e+03 
722.760  3.93200000e+03 
721.862  3.97500000e+03 
720.964  4.03100000e+03 
720.066  3.90800000e+03 
719.167  3.97500000e+03 
718.269  4.07400000e+03 
717.371  3.99600000e+03 
716.473  4.02500000e+03 
715.574  3.98600000e+03 
714.676  3.96800000e+03 
713.778  3.94900000e+03 
712.880  4.04700000e+03 
711.982  4.02500000e+03 
711.083  3.87600000e+03 
710.185  3.92400000e+03 
709.287  3.95000000e+03 
708.389  3.98400000e+03 
707.490  4.08100000e+03 
706.592  3.92300000e+03 
705.694  3.94300000e+03 
704.796  3.92500000e+03 
703.897  4.05400000e+03 
702.999  4.08100000e+03 
702.101  3.96000000e+03 
701.203  3.97100000e+03 
700.305  3.92300000e+03 
699.406  3.91100000e+03 
698.508  3.87900000e+03 
697.610  3.82100000e+03 
696.712  3.84100000e+03 
695.813  3.93000000e+03 
694.915  3.96100000e+03 
694.017  3.82100000e+03 
693.119  3.84100000e+03 
692.221  3.90700000e+03 
691.322  3.82700000e+03 
690.424  3.72600000e+03 
689.526  3.77600000e+03 
688.628  3.81900000e+03 
687.729  3.86700000e+03 
686.831  3.96700000e+03 
685.933  3.76900000e+03 
685.035  3.90500000e+03 
684.136  3.93500000e+03 
683.238  3.90600000e+03 
682.340  3.79900000e+03 
681.442  3.72400000e+03 
680.544  3.97900000e+03 
679.645  3.71300000e+03 
678.747  3.77900000e+03 
677.849  3.77700000e+03 
676.951  3.70500000e+03 
676.052  3.55400000e+03 
675.154  3.75100000e+03 
674.256  3.68800000e+03 
673.358  3.60900000e+03 
672.460  3.61000000e+03 
671.561  3.65800000e+03 
670.663  3.62300000e+03 
669.765  3.65000000e+03 
668.867  3.58900000e+03 
667.968  3.52600000e+03 
667.070  3.55800000e+03 
666.172  3.61600000e+03 
665.274  3.57000000e+03 
664.375  3.64100000e+03 
663.477  3.53300000e+03 
662.579  3.56300000e+03 
661.681  3.47800000e+03 
660.783  3.48900000e+03 
659.884  3.59700000e+03 
658.986  3.60100000e+03 
658.088  3.53300000e+03 
657.190  3.61700000e+03 
656.291  3.54100000e+03 
655.393  3.52400000e+03 
654.495  3.49400000e+03 
653.597  3.46700000e+03 
652.699  3.41700000e+03 
651.800  3.56000000e+03 
650.902  3.52800000e+03 
650.004  3.54700000e+03 
649.106  3.51300000e+03 
648.207  3.59600000e+03 
647.309  3.61000000e+03 
646.411  3.51800000e+03 
645.513  3.50500000e+03 
644.615  3.48700000e+03 
643.716  3.48300000e+03 
642.818  3.48500000e+03 
641.920  3.54700000e+03 
641.022  3.39000000e+03 
640.123  3.55200000e+03 
639.225  3.55500000e+03 
638.327  3.48000000e+03 
637.429  3.40800000e+03 
636.530  3.36700000e+03 
635.632  3.48200000e+03 
634.734  3.39600000e+03 
633.836  3.30400000e+03 
632.938  3.39800000e+03 
632.039  3.48600000e+03 
631.141  3.43600000e+03 
630.243  3.36500000e+03 
629.345  3.41100000e+03 
628.446  3.48800000e+03 
627.548  3.43000000e+03 
626.650  3.35700000e+03 
625.752  3.40800000e+03 
624.854  3.40000000e+03 
623.955  3.38200000e+03 
623.057  3.46700000e+03 
622.159  3.39800000e+03 
621.261  3.38100000e+03 
620.362  3.37700000e+03 
619.464  3.42900000e+03 
618.566  3.35200000e+03 
617.668  3.29700000e+03 
616.769  3.26400000e+03 
615.871  3.30400000e+03 
614.973  3.26800000e+03 
614.075  3.20300000e+03 
613.177  3.23200000e+03 
612.278  3.37200000e+03 
611.380  3.30600000e+03 
610.482  3.33100000e+03 
609.584  3.32000000e+03 
608.685  3.35700000e+03 
607.787  3.22900000e+03 
606.889  3.41000000e+03 
605.991  3.27700000e+03 
605.093  3.12900000e+03 
604.194  3.27400000e+03 
603.296  3.21600000e+03 
602.398  3.11700000e+03 
601.500  3.22000000e+03 
600.601  3.23200000e+03 
599.703  3.20300000e+03 
598.805  3.13700000e+03 
597.907  3.24900000e+03 
597.008  3.23700000e+03 
596.110  3.12300000e+03 
595.212  3.18400000e+03 
594.314  3.10000000e+03 
593.416  3.17800000e+03 
592.517  3.02500000e+03 
591.619  3.13400000e+03 
590.721  3.02800000e+03 
589.823  3.02800000e+03 
588.924  3.02900000e+03 
588.026  3.11200000e+03 
587.128  2.98700000e+03 
586.230  3.07200000e+03 
585.332  3.04300000e+03 
584.433  3.07500000e+03 
583.535  2.91600000e+03 
582.637  2.86900000e+03 
581.739  2.86800000e+03 
580.840  2.75200000e+03 
579.942  2.72400000e+03 
579.044  2.71300000e+03 
578.146  2.68600000e+03 
577.247  2.69400000e+03 
576.349  2.70300000e+03 
575.451  2.84200000e+03 
574.553  2.95800000e+03 
573.655  3.17200000e+03 
572.756  2.95700000e+03 
571.858  2.74300000e+03 
570.960  2.65000000e+03 
570.062  2.38800000e+03 
569.163  2.32600000e+03 
568.265  2.32400000e+03 
567.367  2.38800000e+03 
566.469  2.61500000e+03 
565.571  2.91400000e+03 
564.672  3.26300000e+03 
563.774  3.22000000e+03 
562.876  2.86500000e+03 
561.978  2.59500000e+03 
561.079  2.14000000e+03 
560.181  1.90700000e+03 
559.283  1.86200000e+03 
558.385  1.83400000e+03 
557.487  1.68600000e+03 
556.588  1.71400000e+03 
555.690  1.79900000e+03 
554.792  1.83200000e+03 
553.894  1.76100000e+03 
552.995  1.81100000e+03 
552.097  1.64800000e+03 
551.199  1.64100000e+03 
550.301  1.67800000e+03 
549.402  1.71000000e+03 
548.504  1.69000000e+03 
547.606  1.73700000e+03 
546.708  1.67100000e+03 
545.810  1.73400000e+03 
544.911  1.71000000e+03 
544.013  1.75500000e+03 
543.115  1.67800000e+03 
542.217  1.69500000e+03 
541.318  1.68100000e+03 
540.420  1.72400000e+03 
539.522  1.65400000e+03 
538.624  1.69000000e+03 
537.726  1.67200000e+03 
536.827  1.65600000e+03 
535.929  1.64200000e+03 
535.031  1.64700000e+03 
534.133  1.59100000e+03 
533.234  1.62500000e+03 
532.336  1.49500000e+03 
531.438  1.51300000e+03 
530.540  1.51300000e+03 
529.641  1.46400000e+03 
528.743  1.42900000e+03 
527.845  1.32000000e+03 
526.947  1.21900000e+03 
526.049  1.27200000e+03 
525.150  1.31300000e+03 
524.252  1.28500000e+03 
523.354  1.32300000e+03 
522.456  1.59000000e+03 
521.557  2.44400000e+03 
520.659  3.59200000e+03 
519.761  3.55800000e+03 
518.863  2.94900000e+03 
517.965  1.85000000e+03 
517.066  1.17700000e+03 
516.168  1.09900000e+03 
515.270  1.10600000e+03 
514.372  1.03700000e+03 
513.473  1.13300000e+03 
512.575  1.20400000e+03 
511.677  1.44800000e+03 
510.779  1.37400000e+03 
509.880  1.26000000e+03 
508.982  1.07000000e+03 
508.084  1.04900000e+03 
507.186  1.03400000e+03 
506.288  1.01800000e+03 
505.389  1.03900000e+03 
504.491  1.01200000e+03 
503.593  9.76000000e+02 
502.695  1.09200000e+03 
501.796  1.03500000e+03 
500.898  1.06500000e+03 
500.000  1.03900000e+03 
499.102  9.55000000e+02 
498.204  9.38000000e+02 
497.305  1.00400000e+03 
496.407  1.05100000e+03 
495.509  9.65000000e+02 
494.611  9.92000000e+02 
493.712  1.03800000e+03 
492.814  1.02500000e+03 
491.916  1.02700000e+03 
491.018  1.04300000e+03 
490.120  1.05400000e+03 
489.221  1.06300000e+03 
488.323  1.02500000e+03 
487.425  1.07800000e+03 
486.527  1.06300000e+03 
485.628  1.10300000e+03 
484.730  1.08200000e+03 
483.832  1.10500000e+03 
482.934  1.02100000e+03 
482.035  9.84000000e+02 
481.137  1.00800000e+03 
480.239  1.00600000e+03 
479.341  9.69000000e+02 
478.443  1.04100000e+03 
477.544  1.01600000e+03 
476.646  1.05900000e+03 
475.748  1.04900000e+03 
474.850  1.04800000e+03 
473.951  1.02600000e+03 
473.053  1.03000000e+03 
472.155  9.92000000e+02 
471.257  1.02000000e+03 
470.359  1.01200000e+03 
469.460  1.04200000e+03 
468.562  1.01600000e+03 
467.664  1.05800000e+03 
466.766  1.02900000e+03 
465.867  1.02400000e+03 
464.969  1.03000000e+03 
464.071  1.01500000e+03 
463.173  1.01300000e+03 
462.274  9.86000000e+02 
461.376  1.01900000e+03 
460.478  1.03400000e+03 
459.580  1.06900000e+03 
458.682  1.01000000e+03 
457.783  1.08400000e+03 
456.885  1.04400000e+03 
455.987  1.04000000e+03 
455.089  1.01400000e+03 
454.190  1.09100000e+03 
453.292  1.01000000e+03 
452.394  1.03900000e+03 
451.496  1.04600000e+03 
450.598  1.02700000e+03 
449.699  1.06700000e+03 
448.801  1.05600000e+03 
447.903  1.07700000e+03 
447.005  1.02300000e+03 
446.106  9.93000000e+02 
445.208  9.75000000e+02 
444.310  9.73000000e+02 
443.412  1.01600000e+03 
442.513  1.06000000e+03 
441.615  1.03300000e+03 
440.717  1.06700000e+03 
439.819  1.06100000e+03 
438.921  1.03200000e+03 
438.022  1.08200000e+03 
437.124  1.06600000e+03 
436.226  9.89000000e+02 
435.328  1.03300000e+03 
434.429  1.07400000e+03 
433.531  9.98000000e+02 
432.633  1.04400000e+03 
431.735  1.05100000e+03 
430.837  1.01400000e+03 
429.938  1.10100000e+03 
429.040  1.07900000e+03 
428.142  1.01800000e+03 
427.244  1.03100000e+03 
426.345  1.10500000e+03 
425.447  1.09700000e+03 
424.549  1.03900000e+03 
423.651  1.00200000e+03 
422.753  1.08300000e+03 
421.854  1.07900000e+03 
420.956  1.08000000e+03 
420.058  1.05900000e+03 
419.160  1.05300000e+03 
418.261  1.05400000e+03 
417.363  1.05800000e+03 
416.465  1.07700000e+03 
415.567  1.06400000e+03 
414.668  1.06800000e+03 
413.770  1.07700000e+03 
412.872  1.04800000e+03 
411.974  1.10800000e+03 
411.076  1.02100000e+03 
410.177  1.08900000e+03 
409.279  1.03600000e+03 
408.381  1.01800000e+03 
407.483  1.05200000e+03 
406.584  1.03700000e+03 
405.686  1.10300000e+03 
404.788  1.06500000e+03 
403.890  9.89000000e+02 
402.992  1.05400000e+03 
402.093  1.09400000e+03 
401.195  1.06100000e+03 
400.297  1.07600000e+03 
399.399  1.11200000e+03 
398.500  1.04800000e+03 
397.602  1.07600000e+03 
396.704  1.02100000e+03 
395.806  1.05700000e+03 
394.907  1.06200000e+03 
394.009  1.12500000e+03 
393.111  1.07600000e+03 
392.213  1.12100000e+03 
391.315  1.12200000e+03 
390.416  1.04000000e+03 
389.518  1.07400000e+03 
388.620  1.00700000e+03 
387.722  1.05500000e+03 
386.823  1.08800000e+03 
385.925  1.07800000e+03 
385.027  1.09700000e+03 
384.129  1.06200000e+03 
383.231  1.10500000e+03 
382.332  1.03900000e+03 
381.434  1.06500000e+03 
380.536  1.06800000e+03 
379.638  1.08300000e+03 
378.739  1.04200000e+03 
377.841  1.04900000e+03 
376.943  1.04200000e+03 
376.045  1.11900000e+03 
375.146  1.03900000e+03 
374.248  1.07000000e+03 
373.350  1.12900000e+03 
372.452  1.10400000e+03 
371.554  1.12200000e+03 
370.655  1.10800000e+03 
369.757  1.12800000e+03 
368.859  1.00600000e+03 
367.961  1.13800000e+03 
367.062  1.05900000e+03 
366.164  1.07300000e+03 
365.266  1.04900000e+03 
364.368  9.96000000e+02 
363.470  1.03700000e+03 
362.571  1.07700000e+03 
361.673  1.11300000e+03 
360.775  1.00500000e+03 
359.877  1.01600000e+03 
358.978  1.00500000e+03 
358.080  1.01400000e+03 
357.182  9.58000000e+02 
356.284  1.12400000e+03 
355.385  1.01100000e+03 
354.487  1.07900000e+03 
353.589  1.10400000e+03 
352.691  1.15400000e+03 
351.793  1.12600000e+03 
350.894  1.07000000e+03 
349.996  1.06200000e+03 
349.098  1.05300000e+03 
348.200  1.09900000e+03 
347.301  1.04800000e+03 
346.403  1.02000000e+03 
345.505  1.10700000e+03 
344.607  1.10800000e+03 
343.709  1.10700000e+03 
342.810  1.02200000e+03 
341.912  1.04500000e+03 
341.014  1.05600000e+03 
340.116  1.02400000e+03 
339.217  1.01700000e+03 
338.319  9.36000000e+02 
337.421  1.04000000e+03 
336.523  9.84000000e+02 
335.625  1.01800000e+03 
334.726  9.73000000e+02 
333.828  9.65000000e+02 
332.930  9.71000000e+02 
332.032  1.10000000e+03 
331.133  1.09100000e+03 
