[ Experiment Parameters ]
Experiment Description= <none> 
Number_of_Regions_in_Experiment= 2 

Original_File_name= c:\alexesca\data\97072804.xps 
Instrument= ESCA-West
Date= 07-28-1997
Time=  17:01:24

[ Region 1 Parameters ]
Region_Description = Mn 2p from MnO                     
BEcenter(eV) = 647.500000
BEwidth(eV) = 25.000000
BEstep(eV) = 0.035938
Dwell_Time(sec) = 1.000000
N_o_scans = 1  
N_o_Channels = 696  
Excitation_Energy = -0.000000  
Scan_mode = 0  (DITHERED)

[ Region 2 Parameters ]
Region_Description = Mn 3s from MnO                     
BEcenter(eV) = 60.000000
BEwidth(eV) = 40.000000
BEstep(eV) = 0.035938
Dwell_Time(sec) = 1.000000
N_o_scans = 1  
N_o_Channels = 1113  
Excitation_Energy = -0.000000  
Scan_mode = 0  (DITHERED)

[ Region 1 Curve ]
BEcenter= 647.500 
BEwidth= -24.971 
Excitation= 1486.600
Time_p_channel= 256.000 
Size= 696
659.985  1.66700000e+03 
659.949  1.62900000e+03 
659.913  1.64300000e+03 
659.878  1.71600000e+03 
659.842  1.60700000e+03 
659.806  1.62900000e+03 
659.770  1.61800000e+03 
659.734  1.62400000e+03 
659.698  1.60800000e+03 
659.662  1.61300000e+03 
659.626  1.63000000e+03 
659.590  1.64900000e+03 
659.554  1.69200000e+03 
659.518  1.64500000e+03 
659.482  1.67200000e+03 
659.446  1.64100000e+03 
659.410  1.54000000e+03 
659.375  1.61900000e+03 
659.339  1.64900000e+03 
659.303  1.61100000e+03 
659.267  1.62500000e+03 
659.231  1.55000000e+03 
659.195  1.65200000e+03 
659.159  1.64500000e+03 
659.123  1.64300000e+03 
659.087  1.68800000e+03 
659.051  1.67900000e+03 
659.015  1.68500000e+03 
658.979  1.65600000e+03 
658.943  1.62700000e+03 
658.907  1.71500000e+03 
658.872  1.72800000e+03 
658.836  1.66100000e+03 
658.800  1.62100000e+03 
658.764  1.65000000e+03 
658.728  1.65900000e+03 
658.692  1.66700000e+03 
658.656  1.69800000e+03 
658.620  1.66600000e+03 
658.584  1.64900000e+03 
658.548  1.79800000e+03 
658.512  1.73200000e+03 
658.476  1.62400000e+03 
658.440  1.67300000e+03 
658.404  1.60900000e+03 
658.369  1.68000000e+03 
658.333  1.71900000e+03 
658.297  1.72300000e+03 
658.261  1.77800000e+03 
658.225  1.68600000e+03 
658.189  1.61600000e+03 
658.153  1.70700000e+03 
658.117  1.70500000e+03 
658.081  1.67700000e+03 
658.045  1.70500000e+03 
658.009  1.75200000e+03 
657.973  1.74400000e+03 
657.937  1.70100000e+03 
657.901  1.72000000e+03 
657.866  1.79200000e+03 
657.830  1.77300000e+03 
657.794  1.75300000e+03 
657.758  1.77700000e+03 
657.722  1.73800000e+03 
657.686  1.75500000e+03 
657.650  1.71700000e+03 
657.614  1.75800000e+03 
657.578  1.85600000e+03 
657.542  1.75300000e+03 
657.506  1.83500000e+03 
657.470  1.75000000e+03 
657.434  1.82000000e+03 
657.398  1.83200000e+03 
657.363  1.84800000e+03 
657.327  1.76000000e+03 
657.291  1.73400000e+03 
657.255  1.83700000e+03 
657.219  1.85500000e+03 
657.183  1.83400000e+03 
657.147  1.82800000e+03 
657.111  1.76200000e+03 
657.075  1.93100000e+03 
657.039  1.89200000e+03 
657.003  1.91900000e+03 
656.967  1.94300000e+03 
656.931  1.87600000e+03 
656.895  1.88300000e+03 
656.860  1.92800000e+03 
656.824  1.86800000e+03 
656.788  1.96900000e+03 
656.752  2.00000000e+03 
656.716  1.94300000e+03 
656.680  1.94700000e+03 
656.644  1.95400000e+03 
656.608  1.88200000e+03 
656.572  1.98800000e+03 
656.536  2.03800000e+03 
656.500  1.97000000e+03 
656.464  1.92200000e+03 
656.428  2.02100000e+03 
656.392  1.96600000e+03 
656.357  2.05200000e+03 
656.321  1.99400000e+03 
656.285  2.01600000e+03 
656.249  2.07000000e+03 
656.213  2.01800000e+03 
656.177  2.07200000e+03 
656.141  2.01300000e+03 
656.105  2.07000000e+03 
656.069  2.14600000e+03 
656.033  2.16500000e+03 
655.997  2.18200000e+03 
655.961  2.17000000e+03 
655.925  2.06600000e+03 
655.889  2.14300000e+03 
655.854  2.07300000e+03 
655.818  2.09700000e+03 
655.782  2.12300000e+03 
655.746  2.15600000e+03 
655.710  2.14200000e+03 
655.674  2.11200000e+03 
655.638  2.28700000e+03 
655.602  2.24800000e+03 
655.566  2.18200000e+03 
655.530  2.23000000e+03 
655.494  2.24000000e+03 
655.458  2.24100000e+03 
655.422  2.18900000e+03 
655.386  2.23000000e+03 
655.351  2.13200000e+03 
655.315  2.25600000e+03 
655.279  2.17700000e+03 
655.243  2.17800000e+03 
655.207  2.15100000e+03 
655.171  2.26700000e+03 
655.135  2.18300000e+03 
655.099  2.19100000e+03 
655.063  2.20100000e+03 
655.027  2.07700000e+03 
654.991  2.15100000e+03 
654.955  2.08300000e+03 
654.919  2.22000000e+03 
654.883  2.08300000e+03 
654.847  2.15500000e+03 
654.812  2.14400000e+03 
654.776  2.10800000e+03 
654.740  2.14400000e+03 
654.704  2.18600000e+03 
654.668  2.07500000e+03 
654.632  2.18900000e+03 
654.596  2.05500000e+03 
654.560  2.02500000e+03 
654.524  2.01000000e+03 
654.488  2.11700000e+03 
654.452  2.03000000e+03 
654.416  1.99100000e+03 
654.380  1.96600000e+03 
654.344  2.02800000e+03 
654.309  1.96300000e+03 
654.273  1.90300000e+03 
654.237  1.92600000e+03 
654.201  1.83900000e+03 
654.165  1.89600000e+03 
654.129  1.91700000e+03 
654.093  1.84700000e+03 
654.057  1.88100000e+03 
654.021  1.87300000e+03 
653.985  1.87300000e+03 
653.949  1.87300000e+03 
653.913  1.87900000e+03 
653.877  1.78700000e+03 
653.841  1.80400000e+03 
653.806  1.83500000e+03 
653.770  1.82200000e+03 
653.734  1.77900000e+03 
653.698  1.80600000e+03 
653.662  1.76900000e+03 
653.626  1.70900000e+03 
653.590  1.73900000e+03 
653.554  1.72100000e+03 
653.518  1.77000000e+03 
653.482  1.68700000e+03 
653.446  1.66300000e+03 
653.410  1.68300000e+03 
653.374  1.62500000e+03 
653.338  1.60100000e+03 
653.303  1.63400000e+03 
653.267  1.70300000e+03 
653.231  1.55800000e+03 
653.195  1.54100000e+03 
653.159  1.63000000e+03 
653.123  1.58700000e+03 
653.087  1.54600000e+03 
653.051  1.55100000e+03 
653.015  1.52800000e+03 
652.979  1.57500000e+03 
652.943  1.49000000e+03 
652.907  1.45300000e+03 
652.871  1.51100000e+03 
652.835  1.50700000e+03 
652.800  1.48100000e+03 
652.764  1.46800000e+03 
652.728  1.48400000e+03 
652.692  1.47500000e+03 
652.656  1.40700000e+03 
652.620  1.47000000e+03 
652.584  1.43900000e+03 
652.548  1.37800000e+03 
652.512  1.44900000e+03 
652.476  1.41100000e+03 
652.440  1.45100000e+03 
652.404  1.42000000e+03 
652.368  1.40100000e+03 
652.332  1.42700000e+03 
652.297  1.31700000e+03 
652.261  1.33800000e+03 
652.225  1.45500000e+03 
652.189  1.43900000e+03 
652.153  1.41200000e+03 
652.117  1.37700000e+03 
652.081  1.37000000e+03 
652.045  1.43200000e+03 
652.009  1.39300000e+03 
651.973  1.32000000e+03 
651.937  1.38600000e+03 
651.901  1.35200000e+03 
651.865  1.32700000e+03 
651.829  1.34800000e+03 
651.794  1.39100000e+03 
651.758  1.30200000e+03 
651.722  1.41000000e+03 
651.686  1.40000000e+03 
651.650  1.34800000e+03 
651.614  1.32900000e+03 
651.578  1.38000000e+03 
651.542  1.40500000e+03 
651.506  1.29700000e+03 
651.470  1.42300000e+03 
651.434  1.35400000e+03 
651.398  1.41800000e+03 
651.362  1.37300000e+03 
651.326  1.35700000e+03 
651.291  1.32900000e+03 
651.255  1.34900000e+03 
651.219  1.39100000e+03 
651.183  1.30300000e+03 
651.147  1.37900000e+03 
651.111  1.32100000e+03 
651.075  1.33200000e+03 
651.039  1.35900000e+03 
651.003  1.40400000e+03 
650.967  1.29700000e+03 
650.931  1.34300000e+03 
650.895  1.33200000e+03 
650.859  1.34700000e+03 
650.823  1.34300000e+03 
650.788  1.34800000e+03 
650.752  1.37100000e+03 
650.716  1.37200000e+03 
650.680  1.33000000e+03 
650.644  1.33200000e+03 
650.608  1.35200000e+03 
650.572  1.36800000e+03 
650.536  1.34600000e+03 
650.500  1.34600000e+03 
650.464  1.35000000e+03 
650.428  1.34400000e+03 
650.392  1.35500000e+03 
650.356  1.33300000e+03 
650.320  1.31900000e+03 
650.285  1.34700000e+03 
650.249  1.28200000e+03 
650.213  1.32000000e+03 
650.177  1.37100000e+03 
650.141  1.35000000e+03 
650.105  1.40000000e+03 
650.069  1.37300000e+03 
650.033  1.36100000e+03 
649.997  1.39900000e+03 
649.961  1.38200000e+03 
649.925  1.41000000e+03 
649.889  1.36000000e+03 
649.853  1.37500000e+03 
649.817  1.43800000e+03 
649.781  1.33000000e+03 
649.746  1.38700000e+03 
649.710  1.38800000e+03 
649.674  1.36700000e+03 
649.638  1.38700000e+03 
649.602  1.41100000e+03 
649.566  1.40000000e+03 
649.530  1.39300000e+03 
649.494  1.33700000e+03 
649.458  1.41000000e+03 
649.422  1.35400000e+03 
649.386  1.35800000e+03 
649.350  1.27800000e+03 
649.314  1.39500000e+03 
649.278  1.39600000e+03 
649.243  1.37300000e+03 
649.207  1.34600000e+03 
649.171  1.30900000e+03 
649.135  1.34800000e+03 
649.099  1.37900000e+03 
649.063  1.43800000e+03 
649.027  1.39100000e+03 
648.991  1.37000000e+03 
648.955  1.34200000e+03 
648.919  1.46600000e+03 
648.883  1.41000000e+03 
648.847  1.41000000e+03 
648.811  1.35300000e+03 
648.775  1.40900000e+03 
648.740  1.39100000e+03 
648.704  1.44700000e+03 
648.668  1.30400000e+03 
648.632  1.47400000e+03 
648.596  1.47300000e+03 
648.560  1.34600000e+03 
648.524  1.39800000e+03 
648.488  1.41000000e+03 
648.452  1.33400000e+03 
648.416  1.34600000e+03 
648.380  1.39600000e+03 
648.344  1.34500000e+03 
648.308  1.36900000e+03 
648.272  1.37900000e+03 
648.237  1.40100000e+03 
648.201  1.41000000e+03 
648.165  1.37400000e+03 
648.129  1.36400000e+03 
648.093  1.41900000e+03 
648.057  1.40300000e+03 
648.021  1.47100000e+03 
647.985  1.44500000e+03 
647.949  1.34400000e+03 
647.913  1.44800000e+03 
647.877  1.41900000e+03 
647.841  1.48600000e+03 
647.805  1.45900000e+03 
647.769  1.47600000e+03 
647.734  1.42200000e+03 
647.698  1.39700000e+03 
647.662  1.42500000e+03 
647.626  1.45200000e+03 
647.590  1.43600000e+03 
647.554  1.39400000e+03 
647.518  1.39200000e+03 
647.482  1.45700000e+03 
647.446  1.44200000e+03 
647.410  1.47700000e+03 
647.374  1.38600000e+03 
647.338  1.40900000e+03 
647.302  1.35800000e+03 
647.266  1.46400000e+03 
647.231  1.47000000e+03 
647.195  1.47500000e+03 
647.159  1.39300000e+03 
647.123  1.50200000e+03 
647.087  1.53500000e+03 
647.051  1.49300000e+03 
647.015  1.49000000e+03 
646.979  1.50200000e+03 
646.943  1.53000000e+03 
646.907  1.44600000e+03 
646.871  1.46100000e+03 
646.835  1.50500000e+03 
646.799  1.54600000e+03 
646.763  1.51400000e+03 
646.728  1.54500000e+03 
646.692  1.60800000e+03 
646.656  1.46500000e+03 
646.620  1.49500000e+03 
646.584  1.55700000e+03 
646.548  1.59500000e+03 
646.512  1.56100000e+03 
646.476  1.57600000e+03 
646.440  1.63800000e+03 
646.404  1.57800000e+03 
646.368  1.61300000e+03 
646.332  1.63300000e+03 
646.296  1.61400000e+03 
646.260  1.69400000e+03 
646.225  1.60100000e+03 
646.189  1.63900000e+03 
646.153  1.64700000e+03 
646.117  1.70800000e+03 
646.081  1.64300000e+03 
646.045  1.75100000e+03 
646.009  1.65400000e+03 
645.973  1.66200000e+03 
645.937  1.63500000e+03 
645.901  1.72500000e+03 
645.865  1.76300000e+03 
645.829  1.68800000e+03 
645.793  1.74200000e+03 
645.757  1.76700000e+03 
645.722  1.75800000e+03 
645.686  1.86800000e+03 
645.650  1.86500000e+03 
645.614  1.83500000e+03 
645.578  1.83600000e+03 
645.542  1.84600000e+03 
645.506  1.90200000e+03 
645.470  1.90700000e+03 
645.434  1.96600000e+03 
645.398  1.84400000e+03 
645.362  1.80800000e+03 
645.326  2.01200000e+03 
645.290  2.00200000e+03 
645.254  1.95100000e+03 
645.219  1.94300000e+03 
645.183  2.00100000e+03 
645.147  2.05500000e+03 
645.111  2.07300000e+03 
645.075  2.15000000e+03 
645.039  2.13600000e+03 
645.003  2.07000000e+03 
644.967  2.09200000e+03 
644.931  2.10900000e+03 
644.895  2.11300000e+03 
644.859  2.13300000e+03 
644.823  2.16300000e+03 
644.787  2.17200000e+03 
644.751  2.25200000e+03 
644.715  2.30600000e+03 
644.680  2.18500000e+03 
644.644  2.34700000e+03 
644.608  2.23400000e+03 
644.572  2.31900000e+03 
644.536  2.27700000e+03 
644.500  2.40100000e+03 
644.464  2.35300000e+03 
644.428  2.26200000e+03 
644.392  2.26200000e+03 
644.356  2.37100000e+03 
644.320  2.39200000e+03 
644.284  2.40400000e+03 
644.248  2.49700000e+03 
644.212  2.41500000e+03 
644.177  2.44600000e+03 
644.141  2.38000000e+03 
644.105  2.46000000e+03 
644.069  2.49200000e+03 
644.033  2.60400000e+03 
643.997  2.47900000e+03 
643.961  2.45700000e+03 
643.925  2.49600000e+03 
643.889  2.53800000e+03 
643.853  2.53100000e+03 
643.817  2.57100000e+03 
643.781  2.55200000e+03 
643.745  2.60000000e+03 
643.709  2.54400000e+03 
643.674  2.47100000e+03 
643.638  2.56300000e+03 
643.602  2.58300000e+03 
643.566  2.51800000e+03 
643.530  2.57700000e+03 
643.494  2.53300000e+03 
643.458  2.57300000e+03 
643.422  2.55000000e+03 
643.386  2.60400000e+03 
643.350  2.60500000e+03 
643.314  2.48700000e+03 
643.278  2.51100000e+03 
643.242  2.54400000e+03 
643.206  2.47500000e+03 
643.171  2.52700000e+03 
643.135  2.52400000e+03 
643.099  2.47800000e+03 
643.063  2.49900000e+03 
643.027  2.47800000e+03 
642.991  2.39700000e+03 
642.955  2.34200000e+03 
642.919  2.40300000e+03 
642.883  2.36200000e+03 
642.847  2.42100000e+03 
642.811  2.39900000e+03 
642.775  2.23400000e+03 
642.739  2.33200000e+03 
642.703  2.25600000e+03 
642.668  2.26300000e+03 
642.632  2.28500000e+03 
642.596  2.18700000e+03 
642.560  2.24300000e+03 
642.524  2.19500000e+03 
642.488  2.16200000e+03 
642.452  2.05700000e+03 
642.416  2.07100000e+03 
642.380  2.04700000e+03 
642.344  1.98700000e+03 
642.308  1.89900000e+03 
642.272  1.94900000e+03 
642.236  1.89200000e+03 
642.200  1.96100000e+03 
642.165  1.92700000e+03 
642.129  1.81200000e+03 
642.093  1.81400000e+03 
642.057  1.78500000e+03 
642.021  1.67800000e+03 
641.985  1.72600000e+03 
641.949  1.63400000e+03 
641.913  1.63900000e+03 
641.877  1.54000000e+03 
641.841  1.57000000e+03 
641.805  1.48700000e+03 
641.769  1.50200000e+03 
641.733  1.35800000e+03 
641.697  1.36500000e+03 
641.662  1.36300000e+03 
641.626  1.39300000e+03 
641.590  1.25300000e+03 
641.554  1.28400000e+03 
641.518  1.16300000e+03 
641.482  1.21600000e+03 
641.446  1.19700000e+03 
641.410  1.10000000e+03 
641.374  1.07300000e+03 
641.338  1.11400000e+03 
641.302  1.07700000e+03 
641.266  1.08900000e+03 
641.230  1.01700000e+03 
641.194  1.07500000e+03 
641.159  1.03900000e+03 
641.123  9.91000000e+02 
641.087  9.79000000e+02 
641.051  9.45000000e+02 
641.015  9.53000000e+02 
640.979  9.28000000e+02 
640.943  8.79000000e+02 
640.907  8.81000000e+02 
640.871  9.20000000e+02 
640.835  9.02000000e+02 
640.799  9.34000000e+02 
640.763  9.12000000e+02 
640.727  8.52000000e+02 
640.691  8.65000000e+02 
640.656  8.66000000e+02 
640.620  8.53000000e+02 
640.584  8.14000000e+02 
640.548  8.57000000e+02 
640.512  8.79000000e+02 
640.476  8.27000000e+02 
640.440  8.36000000e+02 
640.404  8.26000000e+02 
640.368  8.57000000e+02 
640.332  8.39000000e+02 
640.296  8.52000000e+02 
640.260  8.05000000e+02 
640.224  8.67000000e+02 
640.188  8.26000000e+02 
640.153  8.11000000e+02 
640.117  8.24000000e+02 
640.081  8.17000000e+02 
640.045  8.39000000e+02 
640.009  7.83000000e+02 
639.973  7.97000000e+02 
639.937  7.86000000e+02 
639.901  7.81000000e+02 
639.865  7.81000000e+02 
639.829  8.00000000e+02 
639.793  7.91000000e+02 
639.757  7.78000000e+02 
639.721  7.50000000e+02 
639.685  8.35000000e+02 
639.649  7.88000000e+02 
639.614  7.95000000e+02 
639.578  7.47000000e+02 
639.542  7.90000000e+02 
639.506  7.96000000e+02 
639.470  8.19000000e+02 
639.434  7.47000000e+02 
639.398  7.77000000e+02 
639.362  8.25000000e+02 
639.326  7.75000000e+02 
639.290  7.87000000e+02 
639.254  7.94000000e+02 
639.218  7.56000000e+02 
639.182  7.60000000e+02 
639.146  7.74000000e+02 
639.111  7.79000000e+02 
639.075  7.65000000e+02 
639.039  8.38000000e+02 
639.003  7.88000000e+02 
638.967  7.72000000e+02 
638.931  8.14000000e+02 
638.895  8.08000000e+02 
638.859  7.67000000e+02 
638.823  7.57000000e+02 
638.787  7.95000000e+02 
638.751  7.98000000e+02 
638.715  7.27000000e+02 
638.679  7.32000000e+02 
638.643  8.25000000e+02 
638.608  8.46000000e+02 
638.572  7.65000000e+02 
638.536  7.83000000e+02 
638.500  7.75000000e+02 
638.464  7.72000000e+02 
638.428  7.94000000e+02 
638.392  7.75000000e+02 
638.356  7.74000000e+02 
638.320  7.57000000e+02 
638.284  7.93000000e+02 
638.248  7.72000000e+02 
638.212  7.73000000e+02 
638.176  7.91000000e+02 
638.140  7.86000000e+02 
638.105  7.66000000e+02 
638.069  7.65000000e+02 
638.033  7.65000000e+02 
637.997  7.76000000e+02 
637.961  7.60000000e+02 
637.925  7.55000000e+02 
637.889  7.91000000e+02 
637.853  7.48000000e+02 
637.817  7.79000000e+02 
637.781  7.50000000e+02 
637.745  8.04000000e+02 
637.709  7.66000000e+02 
637.673  7.59000000e+02 
637.637  7.82000000e+02 
637.602  7.07000000e+02 
637.566  7.73000000e+02 
637.530  7.97000000e+02 
637.494  7.60000000e+02 
637.458  7.61000000e+02 
637.422  7.65000000e+02 
637.386  7.77000000e+02 
637.350  7.51000000e+02 
637.314  8.04000000e+02 
637.278  7.87000000e+02 
637.242  8.07000000e+02 
637.206  7.66000000e+02 
637.170  7.73000000e+02 
637.134  7.33000000e+02 
637.099  8.09000000e+02 
637.063  7.75000000e+02 
637.027  7.65000000e+02 
636.991  7.78000000e+02 
636.955  7.78000000e+02 
636.919  7.68000000e+02 
636.883  7.81000000e+02 
636.847  8.18000000e+02 
636.811  7.27000000e+02 
636.775  7.86000000e+02 
636.739  7.29000000e+02 
636.703  7.95000000e+02 
636.667  7.21000000e+02 
636.631  7.92000000e+02 
636.596  8.05000000e+02 
636.560  7.75000000e+02 
636.524  7.64000000e+02 
636.488  8.14000000e+02 
636.452  7.28000000e+02 
636.416  7.96000000e+02 
636.380  7.68000000e+02 
636.344  7.32000000e+02 
636.308  7.94000000e+02 
636.272  7.65000000e+02 
636.236  8.44000000e+02 
636.200  7.18000000e+02 
636.164  8.01000000e+02 
636.128  7.71000000e+02 
636.093  7.82000000e+02 
636.057  7.60000000e+02 
636.021  7.98000000e+02 
635.985  8.22000000e+02 
635.949  7.59000000e+02 
635.913  7.58000000e+02 
635.877  7.84000000e+02 
635.841  7.90000000e+02 
635.805  7.78000000e+02 
635.769  7.67000000e+02 
635.733  7.96000000e+02 
635.697  7.42000000e+02 
635.661  7.33000000e+02 
635.625  7.40000000e+02 
635.590  7.27000000e+02 
635.554  7.39000000e+02 
635.518  7.69000000e+02 
635.482  7.57000000e+02 
635.446  8.33000000e+02 
635.410  8.00000000e+02 
635.374  7.80000000e+02 
635.338  7.79000000e+02 
635.302  7.40000000e+02 
635.266  8.13000000e+02 
635.230  7.45000000e+02 
635.194  7.84000000e+02 
635.158  7.44000000e+02 
635.122  7.94000000e+02 
635.087  7.66000000e+02 
635.051  7.72000000e+02 
635.015  7.85000000e+02 
[ Region 2 Curve ]
BEcenter= 60.000  
BEwidth= -39.953 
Excitation= 1486.600
Time_p_channel= 256.000 
Size= 1113
79.977   2.81000000e+02 
79.941   2.90000000e+02 
79.905   2.78000000e+02 
79.869   2.61000000e+02 
79.833   2.61000000e+02 
79.797   2.83000000e+02 
79.761   2.73000000e+02 
79.725   2.76000000e+02 
79.689   2.81000000e+02 
79.653   2.40000000e+02 
79.617   2.55000000e+02 
79.581   2.79000000e+02 
79.545   2.59000000e+02 
79.509   2.51000000e+02 
79.474   2.45000000e+02 
79.438   2.71000000e+02 
79.402   2.72000000e+02 
79.366   2.98000000e+02 
79.330   2.99000000e+02 
79.294   2.70000000e+02 
79.258   2.88000000e+02 
79.222   2.83000000e+02 
79.186   2.75000000e+02 
79.150   2.63000000e+02 
79.114   3.07000000e+02 
79.078   2.83000000e+02 
79.042   2.93000000e+02 
79.006   2.66000000e+02 
78.971   2.87000000e+02 
78.935   2.94000000e+02 
78.899   2.68000000e+02 
78.863   2.63000000e+02 
78.827   2.68000000e+02 
