[ Experiment Parameters ]
Experiment Description= <none> 
Number_of_Regions_in_Experiment= 12 

Original_File_name= c:\alexesca\data\97080401.xps 
Instrument= ESCA-West
Date= 08-04-1997
Time=  10:03:43

[ Region 1 Parameters ]
Region_Description = Mn for XPD                         
BEcenter(eV) = 643.000000
BEwidth(eV) = 12.000000
BEstep(eV) = 0.035938
Dwell_Time(sec) = 1.000000
N_o_scans = 1  
N_o_Channels = 334  
Excitation_Energy = 0.000000  
Scan_mode = 0  (DITHERED)

[ Region 2 Parameters ]
Region_Description = Mn for XPD                         
BEcenter(eV) = 643.000000
BEwidth(eV) = 12.000000
BEstep(eV) = 0.035938
Dwell_Time(sec) = 1.000000
N_o_scans = 1  
N_o_Channels = 334  
Excitation_Energy = 0.000000  
Scan_mode = 0  (DITHERED)

[ Region 3 Parameters ]
Region_Description = Mn for XPD                         
BEcenter(eV) = 643.000000
BEwidth(eV) = 12.000000
BEstep(eV) = 0.035938
Dwell_Time(sec) = 1.000000
N_o_scans = 1  
N_o_Channels = 334  
Excitation_Energy = 0.000000  
Scan_mode = 0  (DITHERED)

[ Region 4 Parameters ]
Region_Description = Mn for XPD                         
BEcenter(eV) = 643.000000
BEwidth(eV) = 12.000000
BEstep(eV) = 0.035938
Dwell_Time(sec) = 1.000000
N_o_scans = 1  
N_o_Channels = 334  
Excitation_Energy = 0.000000  
Scan_mode = 0  (DITHERED)

[ Region 5 Parameters ]
Region_Description = Mn for XPD                         
BEcenter(eV) = 643.000000
BEwidth(eV) = 12.000000
BEstep(eV) = 0.035938
Dwell_Time(sec) = 1.000000
N_o_scans = 1  
N_o_Channels = 334  
Excitation_Energy = 0.000000  
Scan_mode = 0  (DITHERED)

[ Region 6 Parameters ]
Region_Description = Mn for XPD                         
BEcenter(eV) = 643.000000
BEwidth(eV) = 12.000000
BEstep(eV) = 0.035938
Dwell_Time(sec) = 1.000000
N_o_scans = 1  
N_o_Channels = 334  
Excitation_Energy = 0.000000  
Scan_mode = 0  (DITHERED)

[ Region 7 Parameters ]
Region_Description = Mn for XPD                         
BEcenter(eV) = 643.000000
BEwidth(eV) = 12.000000
BEstep(eV) = 0.035938
Dwell_Time(sec) = 1.000000
N_o_scans = 1  
N_o_Channels = 334  
Excitation_Energy = 0.000000  
Scan_mode = 0  (DITHERED)

[ Region 8 Parameters ]
Region_Description = Mn for XPD                         
BEcenter(eV) = 643.000000
BEwidth(eV) = 12.000000
BEstep(eV) = 0.035938
Dwell_Time(sec) = 1.000000
N_o_scans = 1  
N_o_Channels = 334  
Excitation_Energy = 0.000000  
Scan_mode = 0  (DITHERED)

[ Region 9 Parameters ]
Region_Description = Mn for XPD                         
BEcenter(eV) = 643.000000
BEwidth(eV) = 12.000000
BEstep(eV) = 0.035938
Dwell_Time(sec) = 1.000000
N_o_scans = 1  
N_o_Channels = 334  
Excitation_Energy = 0.000000  
Scan_mode = 0  (DITHERED)

[ Region 10 Parameters ]
Region_Description = Mn for XPD                         
BEcenter(eV) = 643.000000
BEwidth(eV) = 12.000000
BEstep(eV) = 0.035938
Dwell_Time(sec) = 1.000000
N_o_scans = 1  
N_o_Channels = 334  
Excitation_Energy = 0.000000  
Scan_mode = 0  (DITHERED)

[ Region 11 Parameters ]
Region_Description = Mn for XPD                         
BEcenter(eV) = 643.000000
BEwidth(eV) = 12.000000
BEstep(eV) = 0.035938
Dwell_Time(sec) = 1.000000
N_o_scans = 1  
N_o_Channels = 334  
Excitation_Energy = 0.000000  
Scan_mode = 0  (DITHERED)

[ Region 12 Parameters ]
Region_Description = Mn for XPD                         
BEcenter(eV) = 643.000000
BEwidth(eV) = 12.000000
BEstep(eV) = 0.035938
Dwell_Time(sec) = 1.000000
N_o_scans = 1  
N_o_Channels = 334  
Excitation_Energy = 0.000000  
Scan_mode = 0  (DITHERED)

[ Region 1 Curve ]
BEcenter= 643.000 
BEwidth= -11.959 
Excitation= 1486.600
Time_p_channel= 256.000 
Size= 334
648.979  1.76400000e+03 
648.944  1.79200000e+03 
648.908  1.80600000e+03 
648.872  1.80600000e+03 
648.836  1.75200000e+03 
648.800  1.70100000e+03 
648.764  1.81200000e+03 
648.728  1.66600000e+03 
648.692  1.74700000e+03 
648.656  1.74400000e+03 
648.620  1.78500000e+03 
648.584  1.78500000e+03 
648.549  1.73000000e+03 
648.513  1.67400000e+03 
648.477  1.78500000e+03 
648.441  1.81400000e+03 
648.405  1.73600000e+03 
648.369  1.73400000e+03 
648.333  1.71900000e+03 
648.297  1.77000000e+03 
648.261  1.76300000e+03 
648.225  1.78800000e+03 
648.189  1.71400000e+03 
648.153  1.79900000e+03 
648.118  1.78700000e+03 
648.082  1.77400000e+03 
648.046  1.81100000e+03 
648.010  1.85200000e+03 
647.974  1.84700000e+03 
647.938  1.80200000e+03 
647.902  1.77500000e+03 
647.866  1.82000000e+03 
647.830  1.83800000e+03 
647.794  1.81700000e+03 
647.758  1.81000000e+03 
647.723  1.74900000e+03 
647.687  1.78000000e+03 
647.651  1.79400000e+03 
647.615  1.79700000e+03 
647.579  1.84500000e+03 
647.543  1.76900000e+03 
647.507  1.76500000e+03 
647.471  1.70500000e+03 
647.435  1.73900000e+03 
647.399  1.82100000e+03 
647.363  1.75500000e+03 
647.328  1.77100000e+03 
647.292  1.74300000e+03 
647.256  1.75200000e+03 
647.220  1.76400000e+03 
647.184  1.75100000e+03 
647.148  1.79000000e+03 
647.112  1.85200000e+03 
647.076  1.88900000e+03 
647.040  1.77500000e+03 
647.004  1.74600000e+03 
646.968  1.82000000e+03 
646.932  1.82400000e+03 
646.897  1.75000000e+03 
646.861  1.86800000e+03 
646.825  1.79400000e+03 
646.789  1.84700000e+03 
646.753  1.72300000e+03 
646.717  1.83500000e+03 
646.681  1.76200000e+03 
646.645  1.86600000e+03 
646.609  1.79800000e+03 
646.573  1.82700000e+03 
646.537  1.79500000e+03 
646.502  1.83300000e+03 
646.466  1.88600000e+03 
646.430  1.86500000e+03 
646.394  1.85300000e+03 
646.358  1.90700000e+03 
646.322  1.84900000e+03 
646.286  1.87800000e+03 
646.250  1.87200000e+03 
646.214  1.93100000e+03 
646.178  1.93100000e+03 
646.142  1.95500000e+03 
646.106  1.96400000e+03 
646.071  1.94700000e+03 
646.035  1.82700000e+03 
645.999  1.94900000e+03 
645.963  1.91500000e+03 
645.927  1.99900000e+03 
645.891  1.95600000e+03 
645.855  1.87500000e+03 
645.819  1.95200000e+03 
645.783  1.94800000e+03 
645.747  1.93700000e+03 
645.711  1.94300000e+03 
645.676  1.99900000e+03 
645.640  1.97000000e+03 
645.604  2.01000000e+03 
645.568  2.01100000e+03 
645.532  2.05600000e+03 
645.496  2.08200000e+03 
645.460  1.99400000e+03 
645.424  2.01300000e+03 
645.388  2.11300000e+03 
645.352  2.06800000e+03 
645.316  2.03200000e+03 
645.280  2.16900000e+03 
645.245  2.16300000e+03 
645.209  2.20000000e+03 
645.173  2.20400000e+03 
645.137  2.20000000e+03 
645.101  2.17800000e+03 
645.065  2.27100000e+03 
645.029  2.17600000e+03 
644.993  2.23500000e+03 
644.957  2.26100000e+03 
644.921  2.31900000e+03 
644.885  2.22700000e+03 
644.850  2.22400000e+03 
644.814  2.28900000e+03 
644.778  2.26800000e+03 
644.742  2.29000000e+03 
644.706  2.25600000e+03 
644.670  2.35100000e+03 
644.634  2.28200000e+03 
644.598  2.40300000e+03 
644.562  2.25300000e+03 
644.526  2.41600000e+03 
644.490  2.49300000e+03 
644.454  2.51200000e+03 
644.419  2.48400000e+03 
644.383  2.34900000e+03 
644.347  2.43800000e+03 
644.311  2.47300000e+03 
644.275  2.43000000e+03 
644.239  2.46500000e+03 
644.203  2.52700000e+03 
644.167  2.47400000e+03 
644.131  2.52800000e+03 
644.095  2.50300000e+03 
644.059  2.63400000e+03 
644.024  2.51000000e+03 
643.988  2.61200000e+03 
643.952  2.56300000e+03 
643.916  2.56700000e+03 
643.880  2.63500000e+03 
643.844  2.68700000e+03 
643.808  2.64500000e+03 
643.772  2.69500000e+03 
643.736  2.63200000e+03 
643.700  2.63000000e+03 
643.664  2.62100000e+03 
643.628  2.72300000e+03 
643.593  2.72800000e+03 
643.557  2.65300000e+03 
643.521  2.75400000e+03 
643.485  2.72900000e+03 
643.449  2.72800000e+03 
643.413  2.68400000e+03 
643.377  2.66900000e+03 
643.341  2.77600000e+03 
643.305  2.64100000e+03 
643.269  2.75700000e+03 
643.233  2.81100000e+03 
643.198  2.75000000e+03 
643.162  2.64700000e+03 
643.126  2.70700000e+03 
643.090  2.71400000e+03 
643.054  2.67200000e+03 
643.018  2.73800000e+03 
642.982  2.71100000e+03 
642.946  2.67100000e+03 
642.910  2.72000000e+03 
642.874  2.65900000e+03 
642.838  2.75900000e+03 
642.802  2.64700000e+03 
642.767  2.65100000e+03 
642.731  2.69500000e+03 
642.695  2.59900000e+03 
642.659  2.57800000e+03 
642.623  2.67100000e+03 
642.587  2.63100000e+03 
642.551  2.58900000e+03 
642.515  2.56800000e+03 
642.479  2.61100000e+03 
642.443  2.50900000e+03 
642.407  2.53600000e+03 
642.372  2.44600000e+03 
642.336  2.38700000e+03 
642.300  2.49900000e+03 
642.264  2.52500000e+03 
642.228  2.42600000e+03 
642.192  2.42100000e+03 
642.156  2.38800000e+03 
642.120  2.42000000e+03 
642.084  2.34400000e+03 
642.048  2.32200000e+03 
642.012  2.32200000e+03 
641.976  2.20000000e+03 
641.941  2.24700000e+03 
641.905  2.15700000e+03 
641.869  2.14600000e+03 
641.833  2.06600000e+03 
641.797  2.16100000e+03 
641.761  2.07300000e+03 
641.725  2.10200000e+03 
641.689  2.11200000e+03 
641.653  2.12600000e+03 
641.617  1.95500000e+03 
641.581  1.94400000e+03 
641.546  1.87700000e+03 
641.510  1.86200000e+03 
641.474  1.87300000e+03 
641.438  1.91500000e+03 
641.402  1.83700000e+03 
641.366  1.80400000e+03 
641.330  1.83300000e+03 
641.294  1.74900000e+03 
641.258  1.74200000e+03 
641.222  1.71200000e+03 
641.186  1.60100000e+03 
641.150  1.69600000e+03 
641.115  1.61200000e+03 
641.079  1.58900000e+03 
641.043  1.57300000e+03 
641.007  1.50800000e+03 
640.971  1.61800000e+03 
640.935  1.53200000e+03 
640.899  1.43100000e+03 
640.863  1.55100000e+03 
640.827  1.45600000e+03 
640.791  1.45900000e+03 
640.755  1.50100000e+03 
640.720  1.43800000e+03 
640.684  1.49100000e+03 
640.648  1.45400000e+03 
640.612  1.42000000e+03 
640.576  1.37900000e+03 
640.540  1.33800000e+03 
640.504  1.36000000e+03 
640.468  1.33400000e+03 
640.432  1.39700000e+03 
640.396  1.28000000e+03 
640.360  1.39400000e+03 
640.324  1.34500000e+03 
640.289  1.28400000e+03 
640.253  1.27600000e+03 
640.217  1.31300000e+03 
640.181  1.35600000e+03 
640.145  1.34000000e+03 
640.109  1.30800000e+03 
640.073  1.29200000e+03 
640.037  1.25500000e+03 
640.001  1.26200000e+03 
639.965  1.23000000e+03 
639.929  1.27900000e+03 
639.894  1.23000000e+03 
639.858  1.25000000e+03 
639.822  1.30400000e+03 
639.786  1.27900000e+03 
639.750  1.24300000e+03 
639.714  1.31700000e+03 
639.678  1.27600000e+03 
639.642  1.23800000e+03 
639.606  1.24400000e+03 
639.570  1.21300000e+03 
639.534  1.30000000e+03 
639.498  1.30300000e+03 
639.463  1.25100000e+03 
639.427  1.27800000e+03 
639.391  1.28600000e+03 
639.355  1.28000000e+03 
639.319  1.24800000e+03 
639.283  1.23400000e+03 
639.247  1.34200000e+03 
639.211  1.26300000e+03 
639.175  1.25700000e+03 
639.139  1.28600000e+03 
639.103  1.24800000e+03 
639.068  1.30000000e+03 
639.032  1.26700000e+03 
638.996  1.29500000e+03 
638.960  1.25500000e+03 
638.924  1.24100000e+03 
638.888  1.23500000e+03 
638.852  1.27200000e+03 
638.816  1.19200000e+03 
638.780  1.20200000e+03 
638.744  1.26600000e+03 
638.708  1.28400000e+03 
638.672  1.24000000e+03 
638.637  1.27100000e+03 
638.601  1.26400000e+03 
638.565  1.26200000e+03 
638.529  1.23200000e+03 
638.493  1.16800000e+03 
638.457  1.30700000e+03 
638.421  1.28900000e+03 
638.385  1.27000000e+03 
638.349  1.20500000e+03 
638.313  1.32300000e+03 
638.277  1.23600000e+03 
638.242  1.35300000e+03 
638.206  1.32300000e+03 
638.170  1.19000000e+03 
638.134  1.28200000e+03 
638.098  1.25200000e+03 
638.062  1.22000000e+03 
638.026  1.32700000e+03 
637.990  1.27100000e+03 
637.954  1.25400000e+03 
637.918  1.26600000e+03 
637.882  1.23100000e+03 
637.847  1.19700000e+03 
637.811  1.27200000e+03 
637.775  1.18800000e+03 
637.739  1.23500000e+03 
637.703  1.28300000e+03 
637.667  1.31500000e+03 
637.631  1.19000000e+03 
637.595  1.23300000e+03 
637.559  1.27300000e+03 
637.523  1.27900000e+03 
637.487  1.25500000e+03 
637.451  1.29600000e+03 
637.416  1.22900000e+03 
637.380  1.27900000e+03 
637.344  1.25400000e+03 
637.308  1.21200000e+03 
637.272  1.16300000e+03 
637.236  1.30100000e+03 
637.200  1.28200000e+03 
637.164  1.25300000e+03 
637.128  1.24700000e+03 
637.092  1.25900000e+03 
637.056  1.25600000e+03 
637.021  1.22300000e+03 
[ Region 2 Curve ]
BEcenter= 643.000 
BEwidth= -11.959 
Excitation= 1486.600
Time_p_channel= 256.000 
Size= 334
648.979  1.67500000e+03 
648.944  1.73900000e+03 
648.908  1.81300000e+03 
648.872  1.78100000e+03 
648.836  1.80500000e+03 
648.800  1.80200000e+03 
648.764  1.85300000e+03 
648.728  1.85500000e+03 
648.692  1.75000000e+03 
648.656  1.82400000e+03 
648.620  1.84500000e+03 
648.584  1.75800000e+03 
648.549  1.76900000e+03 
648.513  1.79500000e+03 
648.477  1.67800000e+03 
648.441  1.80700000e+03 
648.405  1.76700000e+03 
648.369  1.82500000e+03 
648.333  1.80800000e+03 
648.297  1.80300000e+03 
648.261  1.79300000e+03 
648.225  1.85200000e+03 
648.189  1.80100000e+03 
648.153  1.81900000e+03 
648.118  1.77800000e+03 
648.082  1.77700000e+03 
648.046  1.78000000e+03 
648.010  1.74600000e+03 
647.974  1.83200000e+03 
647.938  1.78700000e+03 
647.902  1.70600000e+03 
647.866  1.75500000e+03 
647.830  1.77200000e+03 
647.794  1.82300000e+03 
647.758  1.84300000e+03 
647.723  1.77500000e+03 
647.687  1.74600000e+03 
647.651  1.80900000e+03 
647.615  1.86900000e+03 
647.579  1.79900000e+03 
647.543  1.82400000e+03 
647.507  1.87400000e+03 
647.471  1.74200000e+03 
647.435  1.77400000e+03 
647.399  1.80800000e+03 
647.363  1.78700000e+03 
647.328  1.84000000e+03 
647.292  1.80000000e+03 
647.256  1.84100000e+03 
647.220  1.89000000e+03 
647.184  1.83900000e+03 
647.148  1.81300000e+03 
647.112  1.86200000e+03 
647.076  1.92800000e+03 
647.040  1.88000000e+03 
647.004  1.84800000e+03 
646.968  1.82200000e+03 
646.932  1.95200000e+03 
646.897  1.83900000e+03 
646.861  1.91400000e+03 
646.825  1.88500000e+03 
646.789  1.81600000e+03 
646.753  1.90000000e+03 
646.717  1.85000000e+03 
646.681  1.84400000e+03 
646.645  1.87700000e+03 
646.609  1.86300000e+03 
646.573  1.84000000e+03 
646.537  1.86100000e+03 
646.502  1.85100000e+03 
646.466  1.79400000e+03 
646.430  1.93300000e+03 
646.394  1.87300000e+03 
646.358  1.95300000e+03 
646.322  1.89200000e+03 
646.286  1.86500000e+03 
646.250  1.92500000e+03 
646.214  2.02500000e+03 
646.178  1.93600000e+03 
646.142  1.90100000e+03 
646.106  1.95600000e+03 
646.071  1.94200000e+03 
646.035  1.99400000e+03 
645.999  2.00000000e+03 
645.963  2.08500000e+03 
645.927  1.93600000e+03 
645.891  2.04200000e+03 
645.855  2.03600000e+03 
645.819  2.11900000e+03 
645.783  2.00200000e+03 
645.747  1.99700000e+03 
645.711  2.05300000e+03 
645.676  2.06800000e+03 
645.640  2.03300000e+03 
645.604  2.04700000e+03 
645.568  2.07900000e+03 
645.532  2.07300000e+03 
645.496  2.02100000e+03 
645.460  2.08700000e+03 
645.424  2.12200000e+03 
645.388  2.14200000e+03 
645.352  2.19000000e+03 
645.316  2.20600000e+03 
645.280  2.08100000e+03 
645.245  2.22900000e+03 
645.209  2.17600000e+03 
645.173  2.12100000e+03 
645.137  2.17200000e+03 
645.101  2.25000000e+03 
645.065  2.21500000e+03 
645.029  2.26700000e+03 
644.993  2.30700000e+03 
644.957  2.29900000e+03 
644.921  2.25100000e+03 
644.885  2.28600000e+03 
644.850  2.25900000e+03 
644.814  2.35900000e+03 
644.778  2.36000000e+03 
644.742  2.34800000e+03 
644.706  2.42000000e+03 
644.670  2.42100000e+03 
644.634  2.46600000e+03 
644.598  2.40700000e+03 
644.562  2.41400000e+03 
644.526  2.37300000e+03 
644.490  2.54700000e+03 
644.454  2.40500000e+03 
644.419  2.46500000e+03 
644.383  2.49100000e+03 
644.347  2.58300000e+03 
644.311  2.55500000e+03 
644.275  2.49000000e+03 
644.239  2.48700000e+03 
644.203  2.57400000e+03 
644.167  2.65100000e+03 
644.131  2.64900000e+03 
644.095  2.62000000e+03 
644.059  2.60600000e+03 
644.024  2.58700000e+03 
643.988  2.62800000e+03 
643.952  2.64800000e+03 
643.916  2.63000000e+03 
643.880  2.70300000e+03 
643.844  2.71100000e+03 
643.808  2.66400000e+03 
643.772  2.73600000e+03 
643.736  2.62400000e+03 
643.700  2.80200000e+03 
643.664  2.69600000e+03 
643.628  2.74800000e+03 
643.593  2.68200000e+03 
643.557  2.76900000e+03 
643.521  2.71400000e+03 
643.485  2.73100000e+03 
643.449  2.74900000e+03 
643.413  2.74200000e+03 
643.377  2.84500000e+03 
643.341  2.78700000e+03 
643.305  2.81800000e+03 
643.269  2.80400000e+03 
643.233  2.75900000e+03 
643.198  2.78000000e+03 
643.162  2.69100000e+03 
643.126  2.77000000e+03 
643.090  2.76500000e+03 
643.054  2.71900000e+03 
643.018  2.82200000e+03 
642.982  2.83500000e+03 
642.946  2.68400000e+03 
642.910  2.78600000e+03 
642.874  2.67100000e+03 
642.838  2.66400000e+03 
642.802  2.75500000e+03 
642.767  2.61700000e+03 
642.731  2.75300000e+03 
642.695  2.70400000e+03 
642.659  2.57800000e+03 
642.623  2.64900000e+03 
642.587  2.60200000e+03 
642.551  2.64800000e+03 
642.515  2.67400000e+03 
642.479  2.67600000e+03 
642.443  2.57500000e+03 
642.407  2.49900000e+03 
642.372  2.60600000e+03 
642.336  2.59300000e+03 
642.300  2.47800000e+03 
642.264  2.39600000e+03 
642.228  2.51600000e+03 
642.192  2.44700000e+03 
642.156  2.44800000e+03 
642.120  2.41800000e+03 
642.084  2.44100000e+03 
642.048  2.33800000e+03 
642.012  2.34300000e+03 
641.976  2.31600000e+03 
641.941  2.32900000e+03 
641.905  2.25500000e+03 
641.869  2.24300000e+03 
641.833  2.17600000e+03 
641.797  2.21200000e+03 
641.761  2.09300000e+03 
641.725  2.13000000e+03 
641.689  2.07500000e+03 
641.653  2.05800000e+03 
641.617  2.11900000e+03 
641.581  2.05200000e+03 
641.546  2.02900000e+03 
641.510  2.04900000e+03 
641.474  1.86200000e+03 
641.438  1.90200000e+03 
641.402  1.91400000e+03 
641.366  1.93200000e+03 
641.330  1.85100000e+03 
641.294  1.81900000e+03 
641.258  1.85000000e+03 
641.222  1.71400000e+03 
641.186  1.68400000e+03 
641.150  1.70800000e+03 
641.115  1.66800000e+03 
641.079  1.68300000e+03 
641.043  1.68900000e+03 
641.007  1.59100000e+03 
640.971  1.50600000e+03 
640.935  1.48900000e+03 
640.899  1.49600000e+03 
640.863  1.56100000e+03 
640.827  1.53000000e+03 
640.791  1.55600000e+03 
640.755  1.52000000e+03 
640.720  1.47700000e+03 
640.684  1.43000000e+03 
640.648  1.40500000e+03 
640.612  1.38400000e+03 
640.576  1.43400000e+03 
640.540  1.37700000e+03 
640.504  1.42800000e+03 
640.468  1.39600000e+03 
640.432  1.36200000e+03 
640.396  1.38800000e+03 
640.360  1.34900000e+03 
640.324  1.38600000e+03 
640.289  1.33000000e+03 
640.253  1.32800000e+03 
640.217  1.35100000e+03 
640.181  1.32000000e+03 
640.145  1.28000000e+03 
640.109  1.29100000e+03 
640.073  1.38100000e+03 
640.037  1.26900000e+03 
640.001  1.28000000e+03 
639.965  1.28000000e+03 
639.929  1.27900000e+03 
639.894  1.26800000e+03 
639.858  1.30600000e+03 
639.822  1.27500000e+03 
639.786  1.25800000e+03 
639.750  1.31500000e+03 
639.714  1.29000000e+03 
639.678  1.25900000e+03 
639.642  1.27100000e+03 
639.606  1.29600000e+03 
639.570  1.28800000e+03 
639.534  1.27700000e+03 
639.498  1.27700000e+03 
639.463  1.23000000e+03 
639.427  1.26700000e+03 
639.391  1.21900000e+03 
639.355  1.30900000e+03 
639.319  1.25200000e+03 
639.283  1.23000000e+03 
639.247  1.28900000e+03 
639.211  1.29100000e+03 
639.175  1.27800000e+03 
639.139  1.24500000e+03 
639.103  1.23500000e+03 
639.068  1.29500000e+03 
639.032  1.26200000e+03 
638.996  1.29600000e+03 
638.960  1.25600000e+03 
638.924  1.34000000e+03 
638.888  1.22300000e+03 
638.852  1.26700000e+03 
638.816  1.26500000e+03 
638.780  1.27600000e+03 
