[ Experiment Parameters ]
Experiment Description= <none> 
Number_of_Regions_in_Experiment= 29 

Original_File_name= c:\alexesca\data\97080301.xps 
Instrument= ESCA-West
Date= 08-03-1997
Time=  16:53:27

[ Region 1 Parameters ]
Region_Description = Mn for XPD                         
BEcenter(eV) = 643.000000
BEwidth(eV) = 12.000000
BEstep(eV) = 0.035938
Dwell_Time(sec) = 1.000000
N_o_scans = 1  
N_o_Channels = 334  
Excitation_Energy = 0.000000  
Scan_mode = 0  (DITHERED)

[ Region 2 Parameters ]
Region_Description = Mn for XPD                         
BEcenter(eV) = 643.000000
BEwidth(eV) = 12.000000
BEstep(eV) = 0.035938
Dwell_Time(sec) = 1.000000
N_o_scans = 1  
N_o_Channels = 334  
Excitation_Energy = 0.000000  
Scan_mode = 0  (DITHERED)

[ Region 3 Parameters ]
Region_Description = Mn for XPD                         
BEcenter(eV) = 643.000000
BEwidth(eV) = 12.000000
BEstep(eV) = 0.035938
Dwell_Time(sec) = 1.000000
N_o_scans = 1  
N_o_Channels = 334  
Excitation_Energy = 0.000000  
Scan_mode = 0  (DITHERED)

[ Region 4 Parameters ]
Region_Description = Mn for XPD                         
BEcenter(eV) = 643.000000
BEwidth(eV) = 12.000000
BEstep(eV) = 0.035938
Dwell_Time(sec) = 1.000000
N_o_scans = 1  
N_o_Channels = 334  
Excitation_Energy = 0.000000  
Scan_mode = 0  (DITHERED)

[ Region 5 Parameters ]
Region_Description = Mn for XPD                         
BEcenter(eV) = 643.000000
BEwidth(eV) = 12.000000
BEstep(eV) = 0.035938
Dwell_Time(sec) = 1.000000
N_o_scans = 1  
N_o_Channels = 334  
Excitation_Energy = 0.000000  
Scan_mode = 0  (DITHERED)

[ Region 6 Parameters ]
Region_Description = Mn for XPD                         
BEcenter(eV) = 643.000000
BEwidth(eV) = 12.000000
BEstep(eV) = 0.035938
Dwell_Time(sec) = 1.000000
N_o_scans = 1  
N_o_Channels = 334  
Excitation_Energy = 0.000000  
Scan_mode = 0  (DITHERED)

[ Region 7 Parameters ]
Region_Description = Mn for XPD                         
BEcenter(eV) = 643.000000
BEwidth(eV) = 12.000000
BEstep(eV) = 0.035938
Dwell_Time(sec) = 1.000000
N_o_scans = 1  
N_o_Channels = 334  
Excitation_Energy = 0.000000  
Scan_mode = 0  (DITHERED)

[ Region 8 Parameters ]
Region_Description = Mn for XPD                         
BEcenter(eV) = 643.000000
BEwidth(eV) = 12.000000
BEstep(eV) = 0.035938
Dwell_Time(sec) = 1.000000
N_o_scans = 1  
N_o_Channels = 334  
Excitation_Energy = 0.000000  
Scan_mode = 0  (DITHERED)

[ Region 9 Parameters ]
Region_Description = Mn for XPD                         
BEcenter(eV) = 643.000000
BEwidth(eV) = 12.000000
BEstep(eV) = 0.035938
Dwell_Time(sec) = 1.000000
N_o_scans = 1  
N_o_Channels = 334  
Excitation_Energy = 0.000000  
Scan_mode = 0  (DITHERED)

[ Region 10 Parameters ]
Region_Description = Mn for XPD                         
BEcenter(eV) = 643.000000
BEwidth(eV) = 12.000000
BEstep(eV) = 0.035938
Dwell_Time(sec) = 1.000000
N_o_scans = 1  
N_o_Channels = 334  
Excitation_Energy = 0.000000  
Scan_mode = 0  (DITHERED)

[ Region 11 Parameters ]
Region_Description = Mn for XPD                         
BEcenter(eV) = 643.000000
BEwidth(eV) = 12.000000
BEstep(eV) = 0.035938
Dwell_Time(sec) = 1.000000
N_o_scans = 1  
N_o_Channels = 334  
Excitation_Energy = 0.000000  
Scan_mode = 0  (DITHERED)

[ Region 12 Parameters ]
Region_Description = Mn for XPD                         
BEcenter(eV) = 643.000000
BEwidth(eV) = 12.000000
BEstep(eV) = 0.035938
Dwell_Time(sec) = 1.000000
N_o_scans = 1  
N_o_Channels = 334  
Excitation_Energy = 0.000000  
Scan_mode = 0  (DITHERED)

[ Region 13 Parameters ]
Region_Description = Mn for XPD                         
BEcenter(eV) = 643.000000
BEwidth(eV) = 12.000000
BEstep(eV) = 0.035938
Dwell_Time(sec) = 1.000000
N_o_scans = 1  
N_o_Channels = 334  
Excitation_Energy = 0.000000  
Scan_mode = 0  (DITHERED)

[ Region 14 Parameters ]
Region_Description = Mn for XPD                         
BEcenter(eV) = 643.000000
BEwidth(eV) = 12.000000
BEstep(eV) = 0.035938
Dwell_Time(sec) = 1.000000
N_o_scans = 1  
N_o_Channels = 334  
Excitation_Energy = 0.000000  
Scan_mode = 0  (DITHERED)

[ Region 15 Parameters ]
Region_Description = Mn for XPD                         
BEcenter(eV) = 643.000000
BEwidth(eV) = 12.000000
BEstep(eV) = 0.035938
Dwell_Time(sec) = 1.000000
N_o_scans = 1  
N_o_Channels = 334  
Excitation_Energy = 0.000000  
Scan_mode = 0  (DITHERED)

[ Region 16 Parameters ]
Region_Description = Mn for XPD                         
BEcenter(eV) = 643.000000
BEwidth(eV) = 12.000000
BEstep(eV) = 0.035938
Dwell_Time(sec) = 1.000000
N_o_scans = 1  
N_o_Channels = 334  
Excitation_Energy = 0.000000  
Scan_mode = 0  (DITHERED)

[ Region 17 Parameters ]
Region_Description = Mn for XPD                         
BEcenter(eV) = 643.000000
BEwidth(eV) = 12.000000
BEstep(eV) = 0.035938
Dwell_Time(sec) = 1.000000
N_o_scans = 1  
N_o_Channels = 334  
Excitation_Energy = 0.000000  
Scan_mode = 0  (DITHERED)

[ Region 18 Parameters ]
Region_Description = Mn for XPD                         
BEcenter(eV) = 643.000000
BEwidth(eV) = 12.000000
BEstep(eV) = 0.035938
Dwell_Time(sec) = 1.000000
N_o_scans = 1  
N_o_Channels = 334  
Excitation_Energy = 0.000000  
Scan_mode = 0  (DITHERED)

[ Region 19 Parameters ]
Region_Description = Mn for XPD                         
BEcenter(eV) = 643.000000
BEwidth(eV) = 12.000000
BEstep(eV) = 0.035938
Dwell_Time(sec) = 1.000000
N_o_scans = 1  
N_o_Channels = 334  
Excitation_Energy = 0.000000  
Scan_mode = 0  (DITHERED)

[ Region 20 Parameters ]
Region_Description = Mn for XPD                         
BEcenter(eV) = 643.000000
BEwidth(eV) = 12.000000
BEstep(eV) = 0.035938
Dwell_Time(sec) = 1.000000
N_o_scans = 1  
N_o_Channels = 334  
Excitation_Energy = 0.000000  
Scan_mode = 0  (DITHERED)

[ Region 21 Parameters ]
Region_Description = Mn for XPD                         
BEcenter(eV) = 643.000000
BEwidth(eV) = 12.000000
BEstep(eV) = 0.035938
Dwell_Time(sec) = 1.000000
N_o_scans = 1  
N_o_Channels = 334  
Excitation_Energy = 0.000000  
Scan_mode = 0  (DITHERED)

[ Region 22 Parameters ]
Region_Description = Mn for XPD                         
BEcenter(eV) = 643.000000
BEwidth(eV) = 12.000000
BEstep(eV) = 0.035938
Dwell_Time(sec) = 1.000000
N_o_scans = 1  
N_o_Channels = 334  
Excitation_Energy = 0.000000  
Scan_mode = 0  (DITHERED)

[ Region 23 Parameters ]
Region_Description = Mn for XPD                         
BEcenter(eV) = 643.000000
BEwidth(eV) = 12.000000
BEstep(eV) = 0.035938
Dwell_Time(sec) = 1.000000
N_o_scans = 1  
N_o_Channels = 334  
Excitation_Energy = 0.000000  
Scan_mode = 0  (DITHERED)

[ Region 24 Parameters ]
Region_Description = Mn for XPD                         
BEcenter(eV) = 643.000000
BEwidth(eV) = 12.000000
BEstep(eV) = 0.035938
Dwell_Time(sec) = 1.000000
N_o_scans = 1  
N_o_Channels = 334  
Excitation_Energy = 0.000000  
Scan_mode = 0  (DITHERED)

[ Region 25 Parameters ]
Region_Description = Mn for XPD                         
BEcenter(eV) = 643.000000
BEwidth(eV) = 12.000000
BEstep(eV) = 0.035938
Dwell_Time(sec) = 1.000000
N_o_scans = 1  
N_o_Channels = 334  
Excitation_Energy = 0.000000  
Scan_mode = 0  (DITHERED)

[ Region 26 Parameters ]
Region_Description = Mn for XPD                         
BEcenter(eV) = 643.000000
BEwidth(eV) = 12.000000
BEstep(eV) = 0.035938
Dwell_Time(sec) = 1.000000
N_o_scans = 1  
N_o_Channels = 334  
Excitation_Energy = 0.000000  
Scan_mode = 0  (DITHERED)

[ Region 27 Parameters ]
Region_Description = Mn for XPD                         
BEcenter(eV) = 643.000000
BEwidth(eV) = 12.000000
BEstep(eV) = 0.035938
Dwell_Time(sec) = 1.000000
N_o_scans = 1  
N_o_Channels = 334  
Excitation_Energy = 0.000000  
Scan_mode = 0  (DITHERED)

[ Region 28 Parameters ]
Region_Description = Mn for XPD                         
BEcenter(eV) = 643.000000
BEwidth(eV) = 12.000000
BEstep(eV) = 0.035938
Dwell_Time(sec) = 1.000000
N_o_scans = 1  
N_o_Channels = 334  
Excitation_Energy = 0.000000  
Scan_mode = 0  (DITHERED)

[ Region 29 Parameters ]
Region_Description = Mn for XPD                         
BEcenter(eV) = 643.000000
BEwidth(eV) = 12.000000
BEstep(eV) = 0.035938
Dwell_Time(sec) = 1.000000
N_o_scans = 1  
N_o_Channels = 334  
Excitation_Energy = 0.000000  
Scan_mode = 0  (DITHERED)

[ Region 1 Curve ]
BEcenter= 643.000 
BEwidth= -11.959 
Excitation= 1486.600
Time_p_channel= 256.000 
Size= 334
648.979  7.47000000e+02 
648.944  7.06000000e+02 
648.908  7.12000000e+02 
648.872  7.42000000e+02 
648.836  7.53000000e+02 
648.800  6.99000000e+02 
648.764  7.65000000e+02 
648.728  7.17000000e+02 
648.692  7.05000000e+02 
648.656  7.26000000e+02 
648.620  6.60000000e+02 
648.584  7.36000000e+02 
648.549  6.99000000e+02 
648.513  7.44000000e+02 
648.477  6.91000000e+02 
648.441  7.32000000e+02 
648.405  7.72000000e+02 
648.369  7.24000000e+02 
648.333  7.36000000e+02 
648.297  7.13000000e+02 
648.261  7.47000000e+02 
648.225  7.17000000e+02 
648.189  7.64000000e+02 
648.153  7.47000000e+02 
648.118  7.86000000e+02 
648.082  7.21000000e+02 
648.046  7.15000000e+02 
648.010  6.99000000e+02 
647.974  7.27000000e+02 
647.938  7.25000000e+02 
647.902  7.04000000e+02 
647.866  7.57000000e+02 
647.830  7.50000000e+02 
647.794  7.05000000e+02 
647.758  7.39000000e+02 
647.723  7.53000000e+02 
647.687  7.50000000e+02 
647.651  6.93000000e+02 
647.615  7.30000000e+02 
647.579  7.22000000e+02 
647.543  7.20000000e+02 
647.507  7.49000000e+02 
647.471  7.03000000e+02 
647.435  7.23000000e+02 
647.399  7.27000000e+02 
647.363  7.21000000e+02 
647.328  7.72000000e+02 
647.292  6.96000000e+02 
647.256  7.22000000e+02 
647.220  7.23000000e+02 
647.184  6.83000000e+02 
647.148  7.22000000e+02 
647.112  7.61000000e+02 
647.076  7.23000000e+02 
647.040  6.96000000e+02 
647.004  7.31000000e+02 
646.968  7.43000000e+02 
646.932  7.53000000e+02 
646.897  7.45000000e+02 
646.861  7.55000000e+02 
646.825  7.11000000e+02 
646.789  7.07000000e+02 
646.753  7.36000000e+02 
646.717  7.16000000e+02 
646.681  7.60000000e+02 
646.645  6.91000000e+02 
646.609  7.57000000e+02 
646.573  7.32000000e+02 
646.537  7.58000000e+02 
646.502  7.52000000e+02 
646.466  7.32000000e+02 
646.430  7.10000000e+02 
646.394  7.40000000e+02 
646.358  7.51000000e+02 
646.322  7.87000000e+02 
646.286  7.84000000e+02 
646.250  7.31000000e+02 
646.214  7.67000000e+02 
646.178  7.34000000e+02 
646.142  7.67000000e+02 
646.106  7.37000000e+02 
646.071  7.64000000e+02 
646.035  7.63000000e+02 
645.999  7.61000000e+02 
645.963  7.23000000e+02 
645.927  7.17000000e+02 
645.891  7.68000000e+02 
645.855  7.41000000e+02 
645.819  7.36000000e+02 
645.783  7.74000000e+02 
645.747  7.46000000e+02 
645.711  7.04000000e+02 
645.676  7.48000000e+02 
645.640  8.14000000e+02 
645.604  7.34000000e+02 
645.568  7.73000000e+02 
645.532  8.13000000e+02 
645.496  7.50000000e+02 
645.460  7.38000000e+02 
645.424  7.54000000e+02 
645.388  7.35000000e+02 
645.352  7.67000000e+02 
645.316  7.74000000e+02 
645.280  7.75000000e+02 
645.245  7.73000000e+02 
645.209  7.47000000e+02 
645.173  7.65000000e+02 
645.137  7.78000000e+02 
645.101  7.52000000e+02 
645.065  7.97000000e+02 
645.029  7.31000000e+02 
644.993  8.12000000e+02 
644.957  7.89000000e+02 
644.921  8.02000000e+02 
644.885  7.48000000e+02 
644.850  8.21000000e+02 
644.814  7.61000000e+02 
644.778  7.93000000e+02 
644.742  7.85000000e+02 
644.706  8.04000000e+02 
644.670  8.35000000e+02 
644.634  8.31000000e+02 
644.598  8.12000000e+02 
644.562  8.24000000e+02 
644.526  8.79000000e+02 
644.490  8.29000000e+02 
644.454  8.34000000e+02 
644.419  8.40000000e+02 
644.383  8.39000000e+02 
644.347  8.42000000e+02 
644.311  8.93000000e+02 
644.275  8.72000000e+02 
644.239  8.58000000e+02 
644.203  8.78000000e+02 
644.167  8.53000000e+02 
644.131  8.87000000e+02 
644.095  9.05000000e+02 
644.059  8.13000000e+02 
644.024  8.30000000e+02 
643.988  8.32000000e+02 
643.952  8.24000000e+02 
643.916  9.17000000e+02 
643.880  8.19000000e+02 
643.844  8.94000000e+02 
643.808  8.58000000e+02 
643.772  9.27000000e+02 
643.736  8.91000000e+02 
643.700  9.07000000e+02 
643.664  9.70000000e+02 
643.628  8.85000000e+02 
643.593  8.76000000e+02 
643.557  9.01000000e+02 
643.521  9.06000000e+02 
643.485  9.73000000e+02 
643.449  9.31000000e+02 
643.413  8.78000000e+02 
643.377  9.11000000e+02 
643.341  9.29000000e+02 
643.305  9.70000000e+02 
643.269  9.80000000e+02 
643.233  9.10000000e+02 
643.198  9.60000000e+02 
643.162  9.68000000e+02 
643.126  9.32000000e+02 
643.090  9.39000000e+02 
643.054  9.33000000e+02 
643.018  9.66000000e+02 
642.982  9.54000000e+02 
642.946  9.62000000e+02 
642.910  9.46000000e+02 
642.874  9.62000000e+02 
642.838  1.02000000e+03 
642.802  9.69000000e+02 
642.767  9.69000000e+02 
642.731  9.70000000e+02 
642.695  1.00900000e+03 
642.659  9.61000000e+02 
642.623  9.49000000e+02 
642.587  9.95000000e+02 
642.551  9.81000000e+02 
642.515  9.57000000e+02 
642.479  9.54000000e+02 
642.443  9.45000000e+02 
642.407  9.60000000e+02 
642.372  9.50000000e+02 
642.336  9.93000000e+02 
642.300  9.81000000e+02 
642.264  9.75000000e+02 
642.228  9.50000000e+02 
642.192  9.34000000e+02 
642.156  9.62000000e+02 
642.120  9.53000000e+02 
642.084  9.82000000e+02 
642.048  9.43000000e+02 
642.012  9.98000000e+02 
641.976  9.37000000e+02 
641.941  9.42000000e+02 
641.905  8.86000000e+02 
641.869  8.98000000e+02 
641.833  9.56000000e+02 
641.797  9.00000000e+02 
641.761  8.65000000e+02 
641.725  9.27000000e+02 
641.689  9.00000000e+02 
641.653  8.64000000e+02 
641.617  9.41000000e+02 
641.581  9.08000000e+02 
641.546  8.48000000e+02 
641.510  8.71000000e+02 
641.474  8.38000000e+02 
641.438  8.73000000e+02 
641.402  9.00000000e+02 
641.366  8.56000000e+02 
641.330  8.59000000e+02 
641.294  8.33000000e+02 
641.258  8.46000000e+02 
641.222  8.02000000e+02 
641.186  7.75000000e+02 
641.150  7.76000000e+02 
641.115  7.37000000e+02 
641.079  8.12000000e+02 
641.043  7.78000000e+02 
641.007  7.48000000e+02 
640.971  7.54000000e+02 
640.935  7.89000000e+02 
640.899  7.68000000e+02 
640.863  7.39000000e+02 
640.827  7.19000000e+02 
640.791  6.97000000e+02 
640.755  6.78000000e+02 
640.720  7.00000000e+02 
640.684  7.12000000e+02 
640.648  7.38000000e+02 
640.612  7.11000000e+02 
640.576  7.02000000e+02 
640.540  7.03000000e+02 
640.504  6.89000000e+02 
640.468  6.37000000e+02 
640.432  6.73000000e+02 
640.396  6.57000000e+02 
640.360  6.49000000e+02 
640.324  6.29000000e+02 
640.289  6.52000000e+02 
640.253  6.62000000e+02 
640.217  6.32000000e+02 
640.181  6.14000000e+02 
640.145  6.32000000e+02 
640.109  6.20000000e+02 
640.073  6.37000000e+02 
640.037  6.43000000e+02 
640.001  5.96000000e+02 
639.965  6.33000000e+02 
639.929  5.74000000e+02 
639.894  6.14000000e+02 
639.858  6.22000000e+02 
639.822  6.08000000e+02 
639.786  6.19000000e+02 
639.750  6.32000000e+02 
639.714  6.21000000e+02 
639.678  6.56000000e+02 
639.642  5.82000000e+02 
639.606  5.96000000e+02 
639.570  5.87000000e+02 
639.534  5.61000000e+02 
639.498  5.94000000e+02 
639.463  6.28000000e+02 
639.427  5.86000000e+02 
639.391  6.09000000e+02 
639.355  5.87000000e+02 
639.319  5.52000000e+02 
639.283  6.28000000e+02 
639.247  5.81000000e+02 
639.211  5.96000000e+02 
639.175  6.13000000e+02 
639.139  5.86000000e+02 
639.103  5.74000000e+02 
639.068  5.73000000e+02 
639.032  6.17000000e+02 
638.996  5.89000000e+02 
638.960  6.03000000e+02 
638.924  5.96000000e+02 
638.888  6.27000000e+02 
638.852  5.97000000e+02 
638.816  6.32000000e+02 
638.780  6.03000000e+02 
638.744  5.79000000e+02 
638.708  5.79000000e+02 
638.672  6.17000000e+02 
638.637  5.86000000e+02 
638.601  6.15000000e+02 
638.565  5.91000000e+02 
638.529  5.95000000e+02 
638.493  5.91000000e+02 
638.457  6.08000000e+02 
638.421  5.46000000e+02 
638.385  5.90000000e+02 
638.349  6.49000000e+02 
638.313  6.04000000e+02 
638.277  6.25000000e+02 
638.242  6.07000000e+02 
638.206  5.73000000e+02 
638.170  6.02000000e+02 
638.134  5.98000000e+02 
638.098  5.67000000e+02 
638.062  5.61000000e+02 
638.026  5.56000000e+02 
637.990  6.12000000e+02 
637.954  6.09000000e+02 
637.918  6.19000000e+02 
637.882  6.28000000e+02 
637.847  6.20000000e+02 
637.811  5.98000000e+02 
637.775  5.66000000e+02 
637.739  5.67000000e+02 
637.703  5.96000000e+02 
637.667  5.57000000e+02 
637.631  5.59000000e+02 
637.595  6.10000000e+02 
637.559  5.62000000e+02 
637.523  5.71000000e+02 
637.487  5.73000000e+02 
637.451  5.90000000e+02 
637.416  6.13000000e+02 
637.380  5.96000000e+02 
637.344  6.22000000e+02 
637.308  6.79000000e+02 
637.272  5.78000000e+02 
637.236  6.02000000e+02 
637.200  5.96000000e+02 
637.164  6.41000000e+02 
637.128  5.81000000e+02 
637.092  6.06000000e+02 
637.056  6.19000000e+02 
637.021  5.60000000e+02 
[ Region 2 Curve ]
BEcenter= 643.000 
BEwidth= -11.959 
Excitation= 1486.600
Time_p_channel= 256.000 
Size= 334
648.979  7.38000000e+02 
648.944  7.97000000e+02 
648.908  8.19000000e+02 
648.872  7.72000000e+02 
648.836  7.90000000e+02 
648.800  8.17000000e+02 
648.764  7.73000000e+02 
648.728  8.01000000e+02 
648.692  7.73000000e+02 
648.656  7.59000000e+02 
648.620  7.72000000e+02 
648.584  8.29000000e+02 
648.549  7.83000000e+02 
648.513  7.81000000e+02 
648.477  7.51000000e+02 
648.441  7.70000000e+02 
648.405  7.51000000e+02 
648.369  7.98000000e+02 
648.333  7.55000000e+02 
648.297  7.12000000e+02 
648.261  8.14000000e+02 
648.225  8.19000000e+02 
648.189  7.70000000e+02 
648.153  7.71000000e+02 
648.118  7.59000000e+02 
648.082  7.41000000e+02 
648.046  8.48000000e+02 
648.010  8.06000000e+02 
647.974  7.94000000e+02 
647.938  7.57000000e+02 
647.902  7.69000000e+02 
647.866  7.80000000e+02 
647.830  7.66000000e+02 
647.794  7.74000000e+02 
647.758  7.76000000e+02 
647.723  7.28000000e+02 
647.687  8.07000000e+02 
647.651  8.00000000e+02 
647.615  7.82000000e+02 
647.579  7.82000000e+02 
647.543  8.20000000e+02 
647.507  8.12000000e+02 
647.471  7.74000000e+02 
647.435  8.20000000e+02 
647.399  8.05000000e+02 
647.363  8.02000000e+02 
647.328  7.90000000e+02 
647.292  7.82000000e+02 
647.256  8.26000000e+02 
647.220  7.65000000e+02 
647.184  7.61000000e+02 
647.148  7.73000000e+02 
647.112  7.59000000e+02 
647.076  8.05000000e+02 
647.040  7.44000000e+02 
647.004  7.55000000e+02 
646.968  7.92000000e+02 
646.932  7.98000000e+02 
646.897  7.82000000e+02 
646.861  7.92000000e+02 
646.825  7.47000000e+02 
646.789  7.71000000e+02 
646.753  7.71000000e+02 
646.717  8.08000000e+02 
646.681  7.62000000e+02 
646.645  7.95000000e+02 
646.609  8.02000000e+02 
646.573  8.35000000e+02 
646.537  8.22000000e+02 
646.502  8.00000000e+02 
646.466  7.74000000e+02 
646.430  7.87000000e+02 
646.394  7.86000000e+02 
646.358  7.99000000e+02 
646.322  7.81000000e+02 
646.286  7.76000000e+02 
646.250  7.59000000e+02 
646.214  8.19000000e+02 
646.178  7.79000000e+02 
646.142  8.08000000e+02 
646.106  7.69000000e+02 
646.071  8.00000000e+02 
646.035  8.38000000e+02 
645.999  8.28000000e+02 
645.963  7.87000000e+02 
645.927  8.48000000e+02 
645.891  8.10000000e+02 
645.855  8.20000000e+02 
645.819  8.47000000e+02 
645.783  7.93000000e+02 
645.747  7.90000000e+02 
645.711  7.76000000e+02 
645.676  8.13000000e+02 
645.640  7.60000000e+02 
645.604  8.14000000e+02 
645.568  8.17000000e+02 
645.532  8.18000000e+02 
645.496  8.20000000e+02 
