EXPERIMENT FILE
Version = 2

[ Experiment Parameters ]
Experiment Description= second 
Number_of_Regions_in_Experiment= 10 

Original_File_name= C:\alexesca\data\Noise]\Attempt1_10Cu111014.xps 
Instrument= HP ESCA West
Date= 11-10-2014
Time=  15:14:15

[ Layer Parameters ]
Layer_Type= XPS

[ Region 1 Parameters ]
Region_Description = Fixed552eV                         
BEcenter(eV) = 552.000000
BEwidth(eV) = 9.200000
BEstep(eV) = 0.035938
Dwell_Time(sec) = 1.000000
N_o_scans = 1000  
N_o_Channels = 256  
Scan_mode = 1  (FIXED)

[ Region 2 Parameters ]
Region_Description = Fixed552eV                         
BEcenter(eV) = 552.000000
BEwidth(eV) = 9.200000
BEstep(eV) = 0.035938
Dwell_Time(sec) = 1.000000
N_o_scans = 1000  
N_o_Channels = 256  
Scan_mode = 1  (FIXED)

[ Region 3 Parameters ]
Region_Description = Fixed552eV                         
BEcenter(eV) = 552.000000
BEwidth(eV) = 9.200000
BEstep(eV) = 0.035938
Dwell_Time(sec) = 1.000000
N_o_scans = 1000  
N_o_Channels = 256  
Scan_mode = 1  (FIXED)

[ Region 4 Parameters ]
Region_Description = Fixed552eV                         
BEcenter(eV) = 552.000000
BEwidth(eV) = 9.200000
BEstep(eV) = 0.035938
Dwell_Time(sec) = 1.000000
N_o_scans = 1000  
N_o_Channels = 256  
Scan_mode = 1  (FIXED)

[ Region 5 Parameters ]
Region_Description = Fixed552eV                         
BEcenter(eV) = 552.000000
BEwidth(eV) = 9.200000
BEstep(eV) = 0.035938
Dwell_Time(sec) = 1.000000
N_o_scans = 1000  
N_o_Channels = 256  
Scan_mode = 1  (FIXED)

[ Region 6 Parameters ]
Region_Description = Fixed552eV                         
BEcenter(eV) = 552.000000
BEwidth(eV) = 9.200000
BEstep(eV) = 0.035938
Dwell_Time(sec) = 1.000000
N_o_scans = 1000  
N_o_Channels = 256  
Scan_mode = 1  (FIXED)

[ Region 7 Parameters ]
Region_Description = Fixed552eV                         
BEcenter(eV) = 552.000000
BEwidth(eV) = 9.200000
BEstep(eV) = 0.035938
Dwell_Time(sec) = 1.000000
N_o_scans = 1000  
N_o_Channels = 256  
Scan_mode = 1  (FIXED)

[ Region 8 Parameters ]
Region_Description = Fixed552eV                         
BEcenter(eV) = 552.000000
BEwidth(eV) = 9.200000
BEstep(eV) = 0.035938
Dwell_Time(sec) = 1.000000
N_o_scans = 1000  
N_o_Channels = 256  
Scan_mode = 1  (FIXED)

[ Region 9 Parameters ]
Region_Description = Fixed552eV                         
BEcenter(eV) = 552.000000
BEwidth(eV) = 9.200000
BEstep(eV) = 0.035938
Dwell_Time(sec) = 1.000000
N_o_scans = 1000  
N_o_Channels = 256  
Scan_mode = 1  (FIXED)

[ Region 10 Parameters ]
Region_Description = Fixed552eV                         
BEcenter(eV) = 552.000000
BEwidth(eV) = 9.200000
BEstep(eV) = 0.035938
Dwell_Time(sec) = 1.000000
N_o_scans = 1000  
N_o_Channels = 256  
Scan_mode = 1  (FIXED)

[ L= 1 R= 1 ]
BEcenter= 552.000 
BEwidth= -9.200  
Excitation= 1486.600
Time_p_channel= 1000.000
Size= 256
556.600  1.68200000e+03 
556.564  1.69000000e+03 
556.528  1.64800000e+03 
556.492  1.59500000e+03 
556.456  1.71700000e+03 
556.420  1.67700000e+03 
556.384  1.75400000e+03 
556.347  1.74000000e+03 
556.311  1.75100000e+03 
556.275  1.71800000e+03 
556.239  1.70600000e+03 
556.203  1.75400000e+03 
556.167  1.71100000e+03 
556.131  1.70900000e+03 
556.095  1.77800000e+03 
556.059  1.76600000e+03 
556.023  1.74900000e+03 
555.987  1.73200000e+03 
555.951  1.78900000e+03 
555.915  1.76500000e+03 
555.878  1.79600000e+03 
555.842  1.75700000e+03 
555.806  1.71700000e+03 
555.770  1.82500000e+03 
555.734  1.84000000e+03 
555.698  1.83800000e+03 
555.662  1.85200000e+03 
555.626  1.79600000e+03 
555.590  1.79500000e+03 
555.554  1.79200000e+03 
555.518  1.84000000e+03 
555.482  1.84200000e+03 
555.445  1.81700000e+03 
555.409  1.83300000e+03 
555.373  1.86500000e+03 
555.337  1.90300000e+03 
555.301  1.86900000e+03 
555.265  1.91600000e+03 
555.229  1.91600000e+03 
555.193  1.85900000e+03 
555.157  1.90500000e+03 
555.121  1.90700000e+03 
555.085  1.89800000e+03 
555.049  1.91500000e+03 
555.013  1.93200000e+03 
554.976  1.92500000e+03 
554.940  1.85900000e+03 
554.904  1.91300000e+03 
554.868  1.95600000e+03 
554.832  1.94500000e+03 
554.796  1.94400000e+03 
554.760  2.03800000e+03 
554.724  2.04000000e+03 
554.688  2.01900000e+03 
554.652  2.03500000e+03 
554.616  2.06800000e+03 
554.580  1.98500000e+03 
554.544  2.01200000e+03 
554.507  2.05900000e+03 
554.471  2.02600000e+03 
554.435  2.04000000e+03 
554.399  1.99700000e+03 
554.363  1.99800000e+03 
554.327  1.97500000e+03 
554.291  1.96800000e+03 
554.255  2.05100000e+03 
554.219  2.04500000e+03 
554.183  2.00800000e+03 
554.147  2.02500000e+03 
554.111  1.98000000e+03 
554.075  2.04300000e+03 
554.038  2.02000000e+03 
554.002  2.05100000e+03 
553.966  1.93400000e+03 
553.930  2.07900000e+03 
553.894  2.06300000e+03 
553.858  2.06500000e+03 
553.822  2.16700000e+03 
553.786  2.17900000e+03 
553.750  2.11500000e+03 
553.714  2.16000000e+03 
553.678  2.01800000e+03 
553.642  2.13100000e+03 
553.605  2.12200000e+03 
553.569  2.19800000e+03 
553.533  2.15400000e+03 
553.497  2.11000000e+03 
553.461  2.14500000e+03 
553.425  2.13000000e+03 
553.389  2.10200000e+03 
553.353  2.08800000e+03 
553.317  2.08100000e+03 
553.281  2.06900000e+03 
553.245  2.06600000e+03 
553.209  2.03300000e+03 
553.173  2.11300000e+03 
553.136  2.13200000e+03 
553.100  1.93700000e+03 
553.064  2.04500000e+03 
553.028  2.01800000e+03 
552.992  1.99900000e+03 
552.956  2.06100000e+03 
552.920  2.01400000e+03 
552.884  2.09300000e+03 
552.848  2.07800000e+03 
552.812  1.98700000e+03 
552.776  1.96800000e+03 
552.740  1.99000000e+03 
552.704  1.94800000e+03 
552.667  2.02900000e+03 
552.631  1.93500000e+03 
552.595  1.95600000e+03 
552.559  1.94900000e+03 
552.523  1.88400000e+03 
552.487  1.88500000e+03 
552.451  1.89800000e+03 
552.415  1.92000000e+03 
552.379  1.94300000e+03 
552.343  1.89600000e+03 
552.307  1.90300000e+03 
552.271  1.76700000e+03 
552.235  1.95100000e+03 
552.198  1.88900000e+03 
552.162  1.89400000e+03 
552.126  1.92900000e+03 
552.090  1.90900000e+03 
552.054  1.85200000e+03 
552.018  1.91100000e+03 
551.982  1.80300000e+03 
551.946  1.89300000e+03 
551.910  1.81500000e+03 
551.874  1.80200000e+03 
551.838  1.77500000e+03 
551.802  1.81900000e+03 
551.765  1.80700000e+03 
551.729  1.82500000e+03 
551.693  1.77700000e+03 
551.657  1.84800000e+03 
551.621  1.80200000e+03 
551.585  1.77800000e+03 
551.549  1.83900000e+03 
551.513  1.80500000e+03 
551.477  1.83100000e+03 
551.441  1.84900000e+03 
551.405  1.80000000e+03 
551.369  1.71200000e+03 
551.333  1.79600000e+03 
551.296  1.78000000e+03 
551.260  1.83900000e+03 
551.224  1.78900000e+03 
551.188  1.75600000e+03 
551.152  1.77300000e+03 
551.116  1.75400000e+03 
551.080  1.69200000e+03 
551.044  1.68800000e+03 
551.008  1.74200000e+03 
550.972  1.72000000e+03 
550.936  1.76100000e+03 
550.900  1.65700000e+03 
550.864  1.68200000e+03 
550.827  1.76100000e+03 
550.791  1.72900000e+03 
550.755  1.68100000e+03 
550.719  1.70900000e+03 
550.683  1.75600000e+03 
550.647  1.71500000e+03 
550.611  1.67900000e+03 
550.575  1.68500000e+03 
550.539  1.58200000e+03 
550.503  1.63300000e+03 
550.467  1.71200000e+03 
550.431  1.59400000e+03 
550.395  1.61700000e+03 
550.358  1.63000000e+03 
550.322  1.62600000e+03 
550.286  1.60700000e+03 
550.250  1.64400000e+03 
550.214  1.65900000e+03 
550.178  1.64900000e+03 
550.142  1.63100000e+03 
550.106  1.63000000e+03 
550.070  1.61300000e+03 
550.034  1.62700000e+03 
549.998  1.62000000e+03 
549.962  1.65400000e+03 
549.925  1.65800000e+03 
549.889  1.63900000e+03 
549.853  1.65400000e+03 
549.817  1.49100000e+03 
549.781  1.61700000e+03 
549.745  1.57600000e+03 
549.709  1.56200000e+03 
549.673  1.54000000e+03 
549.637  1.59000000e+03 
549.601  1.51300000e+03 
549.565  1.51600000e+03 
549.529  1.48300000e+03 
549.493  1.54900000e+03 
549.456  1.58600000e+03 
549.420  1.50600000e+03 
549.384  1.50400000e+03 
549.348  1.50500000e+03 
549.312  1.48800000e+03 
549.276  1.46600000e+03 
549.240  1.45500000e+03 
549.204  1.47300000e+03 
549.168  1.47700000e+03 
549.132  1.53900000e+03 
549.096  1.40500000e+03 
549.060  1.49700000e+03 
549.024  1.46000000e+03 
548.987  1.47900000e+03 
548.951  1.48800000e+03 
548.915  1.44700000e+03 
548.879  1.45000000e+03 
548.843  1.39300000e+03 
548.807  1.40300000e+03 
548.771  1.36800000e+03 
548.735  1.40700000e+03 
548.699  1.34100000e+03 
548.663  1.34000000e+03 
548.627  1.32900000e+03 
548.591  1.35400000e+03 
548.555  1.32200000e+03 
548.518  1.29200000e+03 
548.482  1.27100000e+03 
548.446  1.33000000e+03 
548.410  1.25900000e+03 
548.374  1.29100000e+03 
548.338  1.35600000e+03 
548.302  1.31700000e+03 
548.266  1.29900000e+03 
548.230  1.33400000e+03 
548.194  1.27800000e+03 
548.158  1.34100000e+03 
548.122  1.30100000e+03 
548.085  1.23600000e+03 
548.049  1.26600000e+03 
548.013  1.24900000e+03 
547.977  1.19000000e+03 
547.941  1.22700000e+03 
547.905  1.32700000e+03 
547.869  1.21000000e+03 
547.833  1.09000000e+03 
547.797  1.19200000e+03 
547.761  9.30000000e+02 
547.725  9.71000000e+02 
547.689  1.11000000e+03 
547.653  8.32000000e+02 
547.616  9.27000000e+02 
547.580  9.41000000e+02 
547.544  6.90000000e+02 
547.508  6.32000000e+02 
547.472  3.26000000e+02 
547.436  0.00000000e+00 
547.400  0.00000000e+00 

[ L= 1 R= 2 ]
BEcenter= 552.000 
BEwidth= -9.200  
Excitation= 1486.600
Time_p_channel= 1000.000
Size= 256
556.600  1.56200000e+03 
556.564  1.63800000e+03 
556.528  1.62800000e+03 
556.492  1.73000000e+03 
556.456  1.69500000e+03 
556.420  1.72800000e+03 
556.384  1.72200000e+03 
556.347  1.75200000e+03 
556.311  1.78100000e+03 
556.275  1.69000000e+03 
556.239  1.78800000e+03 
556.203  1.73700000e+03 
556.167  1.83200000e+03 
556.131  1.72300000e+03 
556.095  1.76600000e+03 
556.059  1.72400000e+03 
556.023  1.77800000e+03 
555.987  1.72300000e+03 
555.951  1.73000000e+03 
555.915  1.69900000e+03 
555.878  1.81600000e+03 
555.842  1.79800000e+03 
555.806  1.77700000e+03 
555.770  1.78200000e+03 
555.734  1.75000000e+03 
555.698  1.77200000e+03 
555.662  1.83700000e+03 
555.626  1.86500000e+03 
555.590  1.88300000e+03 
555.554  1.86300000e+03 
555.518  1.81300000e+03 
555.482  1.91000000e+03 
555.445  1.86800000e+03 
555.409  1.89600000e+03 
555.373  1.83700000e+03 
555.337  1.88600000e+03 
555.301  1.85600000e+03 
555.265  1.88300000e+03 
555.229  1.95200000e+03 
555.193  1.91700000e+03 
555.157  1.86500000e+03 
555.121  1.93000000e+03 
555.085  1.89300000e+03 
555.049  1.91800000e+03 
555.013  1.89800000e+03 
554.976  2.01900000e+03 
554.940  1.96900000e+03 
554.904  1.91700000e+03 
554.868  2.00400000e+03 
554.832  1.99900000e+03 
554.796  1.99500000e+03 
554.760  2.00800000e+03 
554.724  1.99700000e+03 
554.688  1.98200000e+03 
554.652  2.04000000e+03 
554.616  1.92500000e+03 
554.580  1.99400000e+03 
554.544  2.04400000e+03 
554.507  1.96400000e+03 
554.471  2.03200000e+03 
554.435  2.04900000e+03 
554.399  2.09100000e+03 
554.363  1.99600000e+03 
554.327  2.02600000e+03 
554.291  1.98400000e+03 
554.255  1.95100000e+03 
554.219  1.95600000e+03 
554.183  2.05400000e+03 
554.147  2.02100000e+03 
554.111  2.06300000e+03 
554.075  2.00100000e+03 
554.038  1.98000000e+03 
554.002  2.02500000e+03 
553.966  2.08100000e+03 
553.930  2.07400000e+03 
553.894  2.13100000e+03 
553.858  2.07700000e+03 
553.822  2.05600000e+03 
553.786  2.12600000e+03 
553.750  2.22700000e+03 
553.714  2.10000000e+03 
553.678  2.10600000e+03 
553.642  2.11000000e+03 
553.605  2.20600000e+03 
553.569  2.12300000e+03 
553.533  2.15600000e+03 
553.497  2.16400000e+03 
553.461  2.15900000e+03 
553.425  2.08900000e+03 
553.389  2.09200000e+03 
553.353  2.14000000e+03 
553.317  2.18500000e+03 
553.281  2.09300000e+03 
553.245  2.09400000e+03 
553.209  1.96600000e+03 
553.173  2.09800000e+03 
553.136  1.96300000e+03 
553.100  2.01800000e+03 
553.064  1.98600000e+03 
553.028  2.01900000e+03 
552.992  2.08100000e+03 
552.956  2.01800000e+03 
552.920  1.98300000e+03 
552.884  2.03700000e+03 
552.848  2.03000000e+03 
552.812  1.98600000e+03 
552.776  1.95700000e+03 
552.740  1.97300000e+03 
552.704  1.97800000e+03 
552.667  1.94300000e+03 
552.631  1.90500000e+03 
552.595  1.93200000e+03 
552.559  1.85900000e+03 
552.523  1.93800000e+03 
552.487  1.92400000e+03 
552.451  1.96300000e+03 
552.415  1.92500000e+03 
552.379  1.84400000e+03 
552.343  1.88700000e+03 
552.307  1.96800000e+03 
552.271  1.87000000e+03 
552.235  1.90700000e+03 
552.198  1.88000000e+03 
552.162  1.93100000e+03 
552.126  1.91200000e+03 
552.090  1.97500000e+03 
552.054  1.83700000e+03 
552.018  1.82500000e+03 
551.982  1.85500000e+03 
551.946  1.85700000e+03 
551.910  1.90300000e+03 
551.874  1.91100000e+03 
551.838  1.80000000e+03 
551.802  1.82200000e+03 
551.765  1.82400000e+03 
551.729  1.82200000e+03 
551.693  1.83900000e+03 
551.657  1.87500000e+03 
551.621  1.82000000e+03 
551.585  1.85900000e+03 
551.549  1.84600000e+03 
551.513  1.77400000e+03 
551.477  1.81000000e+03 
551.441  1.78600000e+03 
551.405  1.84100000e+03 
551.369  1.79700000e+03 
551.333  1.77900000e+03 
551.296  1.76700000e+03 
551.260  1.76500000e+03 
551.224  1.85400000e+03 
551.188  1.75100000e+03 
551.152  1.73600000e+03 
551.116  1.83900000e+03 
551.080  1.73400000e+03 
551.044  1.80700000e+03 
551.008  1.73500000e+03 
550.972  1.73900000e+03 
550.936  1.74100000e+03 
550.900  1.72600000e+03 
550.864  1.72400000e+03 
550.827  1.72300000e+03 
550.791  1.74200000e+03 
550.755  1.67900000e+03 
550.719  1.66700000e+03 
550.683  1.62400000e+03 
550.647  1.70600000e+03 
550.611  1.67800000e+03 
550.575  1.67300000e+03 
550.539  1.73400000e+03 
550.503  1.76600000e+03 
550.467  1.62400000e+03 
550.431  1.58800000e+03 
550.395  1.71100000e+03 
550.358  1.54100000e+03 
550.322  1.52700000e+03 
550.286  1.70600000e+03 
550.250  1.70000000e+03 
550.214  1.66400000e+03 
550.178  1.71500000e+03 
550.142  1.57900000e+03 
550.106  1.66900000e+03 
550.070  1.64900000e+03 
550.034  1.68500000e+03 
549.998  1.63300000e+03 
549.962  1.68000000e+03 
549.925  1.65000000e+03 
549.889  1.60100000e+03 
549.853  1.58300000e+03 
549.817  1.61800000e+03 
549.781  1.62300000e+03 
549.745  1.60600000e+03 
549.709  1.63200000e+03 
549.673  1.55700000e+03 
549.637  1.61100000e+03 
549.601  1.55700000e+03 
549.565  1.54200000e+03 
549.529  1.51600000e+03 
549.493  1.48400000e+03 
549.456  1.58400000e+03 
549.420  1.53800000e+03 
549.384  1.56100000e+03 
549.348  1.48400000e+03 
549.312  1.46900000e+03 
549.276  1.43800000e+03 
549.240  1.45900000e+03 
549.204  1.51400000e+03 
549.168  1.52200000e+03 
549.132  1.44200000e+03 
549.096  1.48500000e+03 
549.060  1.45700000e+03 
549.024  1.43100000e+03 
548.987  1.37800000e+03 
548.951  1.41000000e+03 
548.915  1.41400000e+03 
548.879  1.47400000e+03 
548.843  1.35100000e+03 
548.807  1.40400000e+03 
548.771  1.32200000e+03 
548.735  1.36700000e+03 
548.699  1.37700000e+03 
548.663  1.36600000e+03 
548.627  1.33900000e+03 
548.591  1.30600000e+03 
548.555  1.32400000e+03 
548.518  1.29500000e+03 
548.482  1.30900000e+03 
548.446  1.31300000e+03 
548.410  1.37300000e+03 
548.374  1.35200000e+03 
548.338  1.35000000e+03 
548.302  1.33900000e+03 
548.266  1.34500000e+03 
548.230  1.28500000e+03 
548.194  1.35200000e+03 
548.158  1.30400000e+03 
548.122  1.25000000e+03 
548.085  1.26900000e+03 
548.049  1.24600000e+03 
548.013  1.26600000e+03 
547.977  1.23900000e+03 
547.941  1.27000000e+03 
547.905  1.30100000e+03 
547.869  1.18800000e+03 
547.833  1.07500000e+03 
547.797  1.29800000e+03 
547.761  1.01500000e+03 
547.725  9.74000000e+02 
547.689  1.05600000e+03 
547.653  8.79000000e+02 
547.616  9.34000000e+02 
547.580  9.21000000e+02 
547.544  6.46000000e+02 
547.508  6.66000000e+02 
547.472  3.73000000e+02 
547.436  0.00000000e+00 
547.400  0.00000000e+00 

[ L= 1 R= 3 ]
BEcenter= 552.000 
BEwidth= -9.200  
Excitation= 1486.600
Time_p_channel= 1000.000
Size= 256
556.600  1.58800000e+03 
556.564  1.63400000e+03 
556.528  1.63700000e+03 
556.492  1.66800000e+03 
556.456  1.74500000e+03 
556.420  1.70800000e+03 
556.384  1.65200000e+03 
556.347  1.66600000e+03 
556.311  1.77600000e+03 
556.275  1.72800000e+03 
556.239  1.73300000e+03 
556.203  1.85200000e+03 
556.167  1.71100000e+03 
556.131  1.76600000e+03 
556.095  1.72100000e+03 
556.059  1.72100000e+03 
556.023  1.83100000e+03 
555.987  1.73400000e+03 
555.951  1.81300000e+03 
555.915  1.78600000e+03 
555.878  1.71600000e+03 
555.842  1.78000000e+03 
555.806  1.77800000e+03 
555.770  1.80200000e+03 
555.734  1.72400000e+03 
555.698  1.83500000e+03 
555.662  1.83400000e+03 
555.626  1.81900000e+03 
555.590  1.79100000e+03 
555.554  1.87700000e+03 
555.518  1.80100000e+03 
555.482  1.84700000e+03 
555.445  1.91900000e+03 
555.409  1.84200000e+03 
555.373  1.89100000e+03 
555.337  1.84200000e+03 
555.301  1.85800000e+03 
555.265  1.87700000e+03 
555.229  1.91000000e+03 
555.193  1.94900000e+03 
555.157  1.92900000e+03 
555.121  1.89700000e+03 
555.085  1.91700000e+03 
555.049  1.92300000e+03 
555.013  1.91900000e+03 
554.976  1.97400000e+03 
554.940  1.92300000e+03 
554.904  1.91200000e+03 
554.868  2.01500000e+03 
554.832  2.00100000e+03 
554.796  2.04700000e+03 
554.760  1.96900000e+03 
554.724  1.97700000e+03 
554.688  1.96400000e+03 
554.652  1.98500000e+03 
554.616  1.98500000e+03 
554.580  1.97400000e+03 
554.544  2.03000000e+03 
554.507  2.05400000e+03 
554.471  2.09200000e+03 
554.435  2.01900000e+03 
554.399  1.94800000e+03 
554.363  1.97700000e+03 
554.327  2.02500000e+03 
554.291  1.97900000e+03 
554.255  1.97700000e+03 
554.219  2.04000000e+03 
554.183  2.06900000e+03 
554.147  2.00300000e+03 
554.111  2.02100000e+03 
554.075  2.08000000e+03 
554.038  2.03300000e+03 
554.002  2.03900000e+03 
553.966  2.01500000e+03 
553.930  2.02000000e+03 
553.894  2.06300000e+03 
553.858  2.07200000e+03 
553.822  2.14400000e+03 
553.786  2.17300000e+03 
553.750  2.06700000e+03 
553.714  2.11700000e+03 
553.678  2.09100000e+03 
553.642  2.23700000e+03 
553.605  2.20700000e+03 
553.569  2.18300000e+03 
553.533  2.19200000e+03 
553.497  2.20000000e+03 
553.461  2.16800000e+03 
553.425  2.17000000e+03 
553.389  2.07900000e+03 
553.353  2.05400000e+03 
553.317  1.99800000e+03 
553.281  2.12200000e+03 
553.245  2.05800000e+03 
553.209  2.07400000e+03 
553.173  2.03300000e+03 
553.136  1.98400000e+03 
553.100  2.02600000e+03 
553.064  2.07400000e+03 
553.028  2.09000000e+03 
552.992  2.12400000e+03 
552.956  2.09900000e+03 
552.920  2.07800000e+03 
552.884  2.00600000e+03 
552.848  2.03400000e+03 
552.812  1.98300000e+03 
552.776  1.99600000e+03 
552.740  1.97800000e+03 
552.704  1.99100000e+03 
552.667  1.98500000e+03 
552.631  1.89200000e+03 
552.595  2.00400000e+03 
552.559  1.88900000e+03 
552.523  1.97600000e+03 
552.487  1.80800000e+03 
552.451  1.91800000e+03 
552.415  1.89400000e+03 
552.379  1.91800000e+03 
552.343  1.94100000e+03 
552.307  1.88600000e+03 
552.271  1.90000000e+03 
552.235  1.93900000e+03 
552.198  1.84900000e+03 
552.162  1.90900000e+03 
552.126  1.92100000e+03 
552.090  1.96200000e+03 
552.054  1.90000000e+03 
552.018  1.91500000e+03 
551.982  1.84700000e+03 
551.946  1.85100000e+03 
551.910  1.86500000e+03 
551.874  1.81500000e+03 
551.838  1.89100000e+03 
551.802  1.83000000e+03 
