EXPERIMENT FILE
Version = 2

[ Experiment Parameters ]
Experiment Description= Fourth 
Number_of_Regions_in_Experiment= 10 

Original_File_name= C:\alexesca\data\Noise]\Attempt1_40Cu111014.xps 
Instrument= HP ESCA West
Date= 11-12-2014
Time=  10:43:55

[ Layer Parameters ]
Layer_Type= XPS

[ Region 1 Parameters ]
Region_Description = Fixed552eV                         
BEcenter(eV) = 552.000000
BEwidth(eV) = 9.200000
BEstep(eV) = 0.035938
Dwell_Time(sec) = 1.000000
N_o_scans = 1000  
N_o_Channels = 256  
Scan_mode = 1  (FIXED)

[ Region 2 Parameters ]
Region_Description = Fixed552eV                         
BEcenter(eV) = 552.000000
BEwidth(eV) = 9.200000
BEstep(eV) = 0.035938
Dwell_Time(sec) = 1.000000
N_o_scans = 1000  
N_o_Channels = 256  
Scan_mode = 1  (FIXED)

[ Region 3 Parameters ]
Region_Description = Fixed552eV                         
BEcenter(eV) = 552.000000
BEwidth(eV) = 9.200000
BEstep(eV) = 0.035938
Dwell_Time(sec) = 1.000000
N_o_scans = 1000  
N_o_Channels = 256  
Scan_mode = 1  (FIXED)

[ Region 4 Parameters ]
Region_Description = Fixed552eV                         
BEcenter(eV) = 552.000000
BEwidth(eV) = 9.200000
BEstep(eV) = 0.035938
Dwell_Time(sec) = 1.000000
N_o_scans = 1000  
N_o_Channels = 256  
Scan_mode = 1  (FIXED)

[ Region 5 Parameters ]
Region_Description = Fixed552eV                         
BEcenter(eV) = 552.000000
BEwidth(eV) = 9.200000
BEstep(eV) = 0.035938
Dwell_Time(sec) = 1.000000
N_o_scans = 1000  
N_o_Channels = 256  
Scan_mode = 1  (FIXED)

[ Region 6 Parameters ]
Region_Description = Fixed552eV                         
BEcenter(eV) = 552.000000
BEwidth(eV) = 9.200000
BEstep(eV) = 0.035938
Dwell_Time(sec) = 1.000000
N_o_scans = 1000  
N_o_Channels = 256  
Scan_mode = 1  (FIXED)

[ Region 7 Parameters ]
Region_Description = Fixed552eV                         
BEcenter(eV) = 552.000000
BEwidth(eV) = 9.200000
BEstep(eV) = 0.035938
Dwell_Time(sec) = 1.000000
N_o_scans = 1000  
N_o_Channels = 256  
Scan_mode = 1  (FIXED)

[ Region 8 Parameters ]
Region_Description = Fixed552eV                         
BEcenter(eV) = 552.000000
BEwidth(eV) = 9.200000
BEstep(eV) = 0.035938
Dwell_Time(sec) = 1.000000
N_o_scans = 1000  
N_o_Channels = 256  
Scan_mode = 1  (FIXED)

[ Region 9 Parameters ]
Region_Description = Fixed552eV                         
BEcenter(eV) = 552.000000
BEwidth(eV) = 9.200000
BEstep(eV) = 0.035938
Dwell_Time(sec) = 1.000000
N_o_scans = 1000  
N_o_Channels = 256  
Scan_mode = 1  (FIXED)

[ Region 10 Parameters ]
Region_Description = Fixed552eV                         
BEcenter(eV) = 552.000000
BEwidth(eV) = 9.200000
BEstep(eV) = 0.035938
Dwell_Time(sec) = 1.000000
N_o_scans = 1000  
N_o_Channels = 256  
Scan_mode = 1  (FIXED)

[ L= 1 R= 1 ]
BEcenter= 552.000 
BEwidth= -9.200  
Excitation= 1486.600
Time_p_channel= 1000.000
Size= 256
556.600  1.65500000e+03 
556.564  1.76000000e+03 
556.528  1.72900000e+03 
556.492  1.72300000e+03 
556.456  1.73000000e+03 
556.420  1.63400000e+03 
556.384  1.73500000e+03 
556.347  1.67200000e+03 
556.311  1.72800000e+03 
556.275  1.77300000e+03 
556.239  1.80500000e+03 
556.203  1.80500000e+03 
556.167  1.74400000e+03 
556.131  1.77200000e+03 
556.095  1.80100000e+03 
556.059  1.88500000e+03 
556.023  1.84300000e+03 
555.987  1.77300000e+03 
555.951  1.83500000e+03 
555.915  1.79000000e+03 
555.878  1.72900000e+03 
555.842  1.72000000e+03 
555.806  1.74900000e+03 
555.770  1.80100000e+03 
555.734  1.80100000e+03 
555.698  1.85400000e+03 
555.662  1.84000000e+03 
555.626  1.86800000e+03 
555.590  1.91200000e+03 
555.554  1.81100000e+03 
555.518  1.87700000e+03 
555.482  1.81700000e+03 
555.445  1.84800000e+03 
555.409  1.89500000e+03 
555.373  1.82600000e+03 
555.337  1.85700000e+03 
555.301  1.89200000e+03 
555.265  1.88400000e+03 
555.229  1.89100000e+03 
555.193  1.85500000e+03 
555.157  1.85400000e+03 
555.121  1.90800000e+03 
555.085  1.91500000e+03 
555.049  1.91300000e+03 
555.013  1.92200000e+03 
554.976  1.94700000e+03 
554.940  1.83000000e+03 
554.904  1.93700000e+03 
554.868  1.88500000e+03 
554.832  1.99700000e+03 
554.796  1.99500000e+03 
554.760  2.00000000e+03 
554.724  2.04100000e+03 
554.688  1.97300000e+03 
554.652  1.94600000e+03 
554.616  1.95900000e+03 
554.580  1.96000000e+03 
554.544  1.98800000e+03 
554.507  1.95100000e+03 
554.471  1.94600000e+03 
554.435  2.00200000e+03 
554.399  1.86400000e+03 
554.363  1.96200000e+03 
554.327  1.95200000e+03 
554.291  1.95500000e+03 
554.255  1.97200000e+03 
554.219  1.99900000e+03 
554.183  1.94600000e+03 
554.147  2.04100000e+03 
554.111  1.93500000e+03 
554.075  2.04500000e+03 
554.038  1.94800000e+03 
554.002  1.97400000e+03 
553.966  2.04500000e+03 
553.930  2.02900000e+03 
553.894  2.08800000e+03 
553.858  2.08400000e+03 
553.822  2.09800000e+03 
553.786  2.08900000e+03 
553.750  2.04000000e+03 
553.714  2.12900000e+03 
553.678  2.15900000e+03 
553.642  2.09600000e+03 
553.605  2.05800000e+03 
553.569  2.07800000e+03 
553.533  2.11200000e+03 
553.497  2.24800000e+03 
553.461  2.11400000e+03 
553.425  2.08100000e+03 
553.389  2.01900000e+03 
553.353  2.12200000e+03 
553.317  2.16000000e+03 
553.281  2.11000000e+03 
553.245  2.08100000e+03 
553.209  2.07200000e+03 
553.173  2.02200000e+03 
553.136  2.02700000e+03 
553.100  2.03400000e+03 
553.064  2.05100000e+03 
553.028  2.06600000e+03 
552.992  2.05500000e+03 
552.956  1.99300000e+03 
552.920  1.98200000e+03 
552.884  2.02300000e+03 
552.848  2.00100000e+03 
552.812  2.05700000e+03 
552.776  2.05700000e+03 
552.740  2.08200000e+03 
552.704  2.02100000e+03 
552.667  1.98000000e+03 
552.631  2.02300000e+03 
552.595  1.99200000e+03 
552.559  1.91600000e+03 
552.523  1.94800000e+03 
552.487  1.94100000e+03 
552.451  1.96000000e+03 
552.415  1.97200000e+03 
552.379  1.92000000e+03 
552.343  2.00900000e+03 
552.307  2.06200000e+03 
552.271  1.93400000e+03 
552.235  1.84400000e+03 
552.198  1.93900000e+03 
552.162  1.86500000e+03 
552.126  1.88800000e+03 
552.090  1.92000000e+03 
552.054  1.90700000e+03 
552.018  1.89900000e+03 
551.982  1.86500000e+03 
551.946  1.85300000e+03 
551.910  1.84600000e+03 
551.874  1.88200000e+03 
551.838  1.80400000e+03 
551.802  1.80900000e+03 
551.765  1.78600000e+03 
551.729  1.82800000e+03 
551.693  1.86600000e+03 
551.657  1.77900000e+03 
551.621  1.82800000e+03 
551.585  1.87500000e+03 
551.549  1.81600000e+03 
551.513  1.82600000e+03 
551.477  1.78600000e+03 
551.441  1.72500000e+03 
551.405  1.84000000e+03 
551.369  1.82300000e+03 
551.333  1.85700000e+03 
551.296  1.78500000e+03 
551.260  1.78000000e+03 
551.224  1.76100000e+03 
551.188  1.77500000e+03 
551.152  1.79100000e+03 
551.116  1.77200000e+03 
551.080  1.80200000e+03 
551.044  1.79800000e+03 
551.008  1.68700000e+03 
550.972  1.74500000e+03 
550.936  1.73700000e+03 
550.900  1.69100000e+03 
550.864  1.67700000e+03 
550.827  1.73400000e+03 
550.791  1.79600000e+03 
550.755  1.61300000e+03 
550.719  1.66100000e+03 
550.683  1.77200000e+03 
550.647  1.68500000e+03 
550.611  1.64900000e+03 
550.575  1.64500000e+03 
550.539  1.69500000e+03 
550.503  1.61300000e+03 
550.467  1.64900000e+03 
550.431  1.70600000e+03 
550.395  1.63500000e+03 
550.358  1.66700000e+03 
550.322  1.63100000e+03 
550.286  1.67200000e+03 
550.250  1.59200000e+03 
550.214  1.69600000e+03 
550.178  1.63200000e+03 
550.142  1.66300000e+03 
550.106  1.63400000e+03 
550.070  1.66600000e+03 
550.034  1.63500000e+03 
549.998  1.58200000e+03 
549.962  1.68400000e+03 
549.925  1.60000000e+03 
549.889  1.56600000e+03 
549.853  1.66800000e+03 
549.817  1.59500000e+03 
549.781  1.60000000e+03 
549.745  1.60800000e+03 
549.709  1.57000000e+03 
549.673  1.55000000e+03 
549.637  1.54500000e+03 
549.601  1.50800000e+03 
549.565  1.52200000e+03 
549.529  1.56200000e+03 
549.493  1.52900000e+03 
549.456  1.51800000e+03 
549.420  1.51100000e+03 
549.384  1.50900000e+03 
549.348  1.50000000e+03 
549.312  1.41600000e+03 
549.276  1.56000000e+03 
549.240  1.43600000e+03 
549.204  1.53100000e+03 
549.168  1.48900000e+03 
549.132  1.41700000e+03 
549.096  1.44500000e+03 
549.060  1.44600000e+03 
549.024  1.44900000e+03 
548.987  1.46200000e+03 
548.951  1.44400000e+03 
548.915  1.37500000e+03 
548.879  1.35500000e+03 
548.843  1.42000000e+03 
548.807  1.37300000e+03 
548.771  1.36400000e+03 
548.735  1.37200000e+03 
548.699  1.34900000e+03 
548.663  1.37200000e+03 
548.627  1.37700000e+03 
548.591  1.31600000e+03 
548.555  1.33800000e+03 
548.518  1.37800000e+03 
548.482  1.39500000e+03 
548.446  1.30000000e+03 
548.410  1.27400000e+03 
548.374  1.36300000e+03 
548.338  1.30200000e+03 
548.302  1.32500000e+03 
548.266  1.28000000e+03 
548.230  1.30500000e+03 
548.194  1.37000000e+03 
548.158  1.31800000e+03 
548.122  1.28900000e+03 
548.085  1.22700000e+03 
548.049  1.26800000e+03 
548.013  1.23900000e+03 
547.977  1.24100000e+03 
547.941  1.24100000e+03 
547.905  1.24200000e+03 
547.869  1.23300000e+03 
547.833  1.09800000e+03 
547.797  1.21300000e+03 
547.761  9.54000000e+02 
547.725  1.02600000e+03 
547.689  1.04300000e+03 
547.653  8.81000000e+02 
547.616  9.42000000e+02 
547.580  9.13000000e+02 
547.544  7.09000000e+02 
547.508  6.46000000e+02 
547.472  3.28000000e+02 
547.436  0.00000000e+00 
547.400  0.00000000e+00 

[ L= 1 R= 2 ]
BEcenter= 552.000 
BEwidth= -9.200  
Excitation= 1486.600
Time_p_channel= 1000.000
Size= 256
556.600  1.65100000e+03 
556.564  1.68400000e+03 
556.528  1.81500000e+03 
556.492  1.73900000e+03 
556.456  1.72100000e+03 
556.420  1.82100000e+03 
556.384  1.80100000e+03 
556.347  1.78000000e+03 
556.311  1.72500000e+03 
556.275  1.76800000e+03 
556.239  1.77100000e+03 
556.203  1.81000000e+03 
556.167  1.79400000e+03 
556.131  1.78500000e+03 
556.095  1.82200000e+03 
556.059  1.83000000e+03 
556.023  1.74400000e+03 
555.987  1.85300000e+03 
555.951  1.78400000e+03 
555.915  1.77500000e+03 
555.878  1.81400000e+03 
555.842  1.85000000e+03 
555.806  1.77600000e+03 
555.770  1.84000000e+03 
555.734  1.84300000e+03 
555.698  1.81600000e+03 
555.662  1.75900000e+03 
555.626  1.87900000e+03 
555.590  1.82400000e+03 
555.554  1.80800000e+03 
555.518  1.87300000e+03 
555.482  1.87900000e+03 
555.445  1.82400000e+03 
555.409  1.83800000e+03 
555.373  1.91700000e+03 
555.337  1.88900000e+03 
555.301  1.86700000e+03 
555.265  1.97100000e+03 
555.229  1.90300000e+03 
555.193  1.91300000e+03 
555.157  1.91300000e+03 
555.121  1.90200000e+03 
555.085  1.91100000e+03 
555.049  1.91500000e+03 
555.013  1.95900000e+03 
554.976  1.94000000e+03 
554.940  1.84800000e+03 
554.904  1.87800000e+03 
554.868  1.97400000e+03 
554.832  2.04500000e+03 
554.796  1.92600000e+03 
554.760  2.01500000e+03 
554.724  1.97100000e+03 
554.688  1.98100000e+03 
554.652  1.96800000e+03 
554.616  2.05300000e+03 
554.580  2.02600000e+03 
554.544  1.96700000e+03 
554.507  1.92900000e+03 
554.471  2.01400000e+03 
554.435  1.96000000e+03 
554.399  1.92300000e+03 
554.363  2.02900000e+03 
554.327  1.99400000e+03 
554.291  1.98500000e+03 
554.255  1.96800000e+03 
554.219  1.97300000e+03 
554.183  1.95000000e+03 
554.147  1.93300000e+03 
554.111  1.97100000e+03 
554.075  2.01200000e+03 
554.038  2.01100000e+03 
554.002  2.07900000e+03 
553.966  2.09400000e+03 
553.930  1.99900000e+03 
553.894  2.08000000e+03 
553.858  2.08400000e+03 
553.822  1.99200000e+03 
553.786  2.04900000e+03 
553.750  2.08100000e+03 
553.714  2.09900000e+03 
553.678  2.13200000e+03 
553.642  2.07400000e+03 
553.605  2.09000000e+03 
553.569  2.16600000e+03 
553.533  2.18600000e+03 
553.497  2.16700000e+03 
553.461  2.19900000e+03 
553.425  2.09200000e+03 
553.389  2.07800000e+03 
553.353  2.11200000e+03 
553.317  2.12100000e+03 
553.281  2.11300000e+03 
553.245  2.10900000e+03 
553.209  2.08400000e+03 
553.173  2.06800000e+03 
553.136  1.96600000e+03 
553.100  2.08000000e+03 
553.064  2.06700000e+03 
553.028  2.06200000e+03 
552.992  2.07100000e+03 
552.956  1.98400000e+03 
552.920  1.96000000e+03 
552.884  2.03100000e+03 
552.848  2.02700000e+03 
552.812  2.12000000e+03 
552.776  2.03900000e+03 
552.740  1.97600000e+03 
552.704  1.99500000e+03 
552.667  1.90700000e+03 
552.631  1.98100000e+03 
552.595  1.97000000e+03 
552.559  1.98500000e+03 
552.523  1.99500000e+03 
552.487  1.85000000e+03 
552.451  2.00700000e+03 
552.415  1.86600000e+03 
552.379  1.92400000e+03 
552.343  1.87300000e+03 
552.307  1.96500000e+03 
552.271  2.01300000e+03 
552.235  1.96000000e+03 
552.198  1.91800000e+03 
552.162  1.89700000e+03 
552.126  1.90700000e+03 
552.090  1.90400000e+03 
552.054  1.86000000e+03 
552.018  1.87300000e+03 
551.982  1.87800000e+03 
551.946  1.84500000e+03 
551.910  1.92400000e+03 
551.874  1.82200000e+03 
551.838  1.86400000e+03 
551.802  1.82000000e+03 
551.765  1.88000000e+03 
551.729  1.83600000e+03 
551.693  1.84600000e+03 
551.657  1.88000000e+03 
551.621  1.70200000e+03 
551.585  1.82800000e+03 
551.549  1.81700000e+03 
551.513  1.81600000e+03 
551.477  1.83100000e+03 
551.441  1.85500000e+03 
551.405  1.79700000e+03 
551.369  1.81400000e+03 
551.333  1.76300000e+03 
551.296  1.78600000e+03 
551.260  1.77900000e+03 
551.224  1.80100000e+03 
551.188  1.73100000e+03 
551.152  1.82500000e+03 
551.116  1.66900000e+03 
551.080  1.75500000e+03 
551.044  1.81300000e+03 
551.008  1.71300000e+03 
550.972  1.75800000e+03 
550.936  1.73500000e+03 
550.900  1.66400000e+03 
550.864  1.81700000e+03 
550.827  1.65000000e+03 
550.791  1.65100000e+03 
550.755  1.65600000e+03 
550.719  1.67000000e+03 
550.683  1.74500000e+03 
550.647  1.70600000e+03 
550.611  1.61100000e+03 
550.575  1.68500000e+03 
550.539  1.67000000e+03 
550.503  1.64400000e+03 
550.467  1.65900000e+03 
550.431  1.61100000e+03 
550.395  1.62300000e+03 
550.358  1.61400000e+03 
550.322  1.67100000e+03 
550.286  1.67200000e+03 
550.250  1.66900000e+03 
550.214  1.77000000e+03 
550.178  1.66400000e+03 
550.142  1.62700000e+03 
550.106  1.62600000e+03 
550.070  1.67200000e+03 
550.034  1.69500000e+03 
549.998  1.70300000e+03 
549.962  1.71700000e+03 
549.925  1.70900000e+03 
549.889  1.54900000e+03 
549.853  1.57400000e+03 
549.817  1.58800000e+03 
549.781  1.63500000e+03 
549.745  1.55400000e+03 
549.709  1.58100000e+03 
549.673  1.58900000e+03 
549.637  1.59000000e+03 
549.601  1.57300000e+03 
549.565  1.55200000e+03 
549.529  1.54200000e+03 
549.493  1.55500000e+03 
549.456  1.57100000e+03 
549.420  1.43900000e+03 
549.384  1.43600000e+03 
549.348  1.49300000e+03 
549.312  1.47900000e+03 
549.276  1.49600000e+03 
549.240  1.51400000e+03 
549.204  1.50600000e+03 
549.168  1.41900000e+03 
549.132  1.46200000e+03 
549.096  1.53600000e+03 
549.060  1.48500000e+03 
549.024  1.40900000e+03 
548.987  1.40100000e+03 
548.951  1.38900000e+03 
548.915  1.42900000e+03 
548.879  1.39600000e+03 
548.843  1.37500000e+03 
548.807  1.36000000e+03 
548.771  1.38300000e+03 
548.735  1.43000000e+03 
548.699  1.43200000e+03 
548.663  1.28600000e+03 
548.627  1.37700000e+03 
548.591  1.42000000e+03 
548.555  1.34200000e+03 
548.518  1.37300000e+03 
548.482  1.29800000e+03 
548.446  1.36700000e+03 
548.410  1.31800000e+03 
548.374  1.30000000e+03 
548.338  1.27300000e+03 
548.302  1.31100000e+03 
548.266  1.28100000e+03 
548.230  1.28900000e+03 
548.194  1.34100000e+03 
548.158  1.29900000e+03 
548.122  1.29900000e+03 
548.085  1.21800000e+03 
548.049  1.28200000e+03 
548.013  1.27300000e+03 
547.977  1.25400000e+03 
547.941  1.31300000e+03 
547.905  1.27200000e+03 
547.869  1.20000000e+03 
547.833  1.11700000e+03 
547.797  1.21200000e+03 
547.761  1.01900000e+03 
547.725  9.55000000e+02 
547.689  1.04600000e+03 
547.653  8.18000000e+02 
547.616  9.94000000e+02 
547.580  9.60000000e+02 
547.544  7.27000000e+02 
547.508  5.68000000e+02 
547.472  2.96000000e+02 
547.436  0.00000000e+00 
547.400  0.00000000e+00 

[ L= 1 R= 3 ]
BEcenter= 552.000 
BEwidth= -9.200  
Excitation= 1486.600
Time_p_channel= 1000.000
Size= 256
556.600  1.66400000e+03 
556.564  1.68600000e+03 
556.528  1.65500000e+03 
556.492  1.73500000e+03 
556.456  1.72100000e+03 
556.420  1.69000000e+03 
556.384  1.78400000e+03 
556.347  1.76600000e+03 
556.311  1.85400000e+03 
556.275  1.71600000e+03 
556.239  1.84100000e+03 
556.203  1.74800000e+03 
556.167  1.77500000e+03 
556.131  1.74600000e+03 
556.095  1.77100000e+03 
556.059  1.88100000e+03 
556.023  1.72600000e+03 
555.987  1.75600000e+03 
555.951  1.80900000e+03 
555.915  1.86900000e+03 
555.878  1.83700000e+03 
555.842  1.84500000e+03 
555.806  1.81300000e+03 
555.770  1.77200000e+03 
555.734  1.82100000e+03 
555.698  1.82600000e+03 
555.662  1.83900000e+03 
555.626  1.84900000e+03 
555.590  1.86900000e+03 
555.554  1.88800000e+03 
555.518  1.80200000e+03 
555.482  1.87300000e+03 
555.445  1.88200000e+03 
555.409  1.85600000e+03 
555.373  1.85500000e+03 
555.337  1.88700000e+03 
555.301  1.95700000e+03 
555.265  1.91800000e+03 
555.229  1.96200000e+03 
555.193  1.86400000e+03 
555.157  1.94800000e+03 
555.121  1.95100000e+03 
555.085  1.88000000e+03 
555.049  1.87900000e+03 
555.013  1.91700000e+03 
554.976  1.90900000e+03 
554.940  1.88800000e+03 
554.904  1.95600000e+03 
554.868  1.95300000e+03 
554.832  1.95700000e+03 
554.796  1.91400000e+03 
554.760  1.98900000e+03 
554.724  2.05300000e+03 
554.688  1.98300000e+03 
554.652  2.04400000e+03 
554.616  1.97300000e+03 
554.580  2.01600000e+03 
554.544  1.90100000e+03 
554.507  1.95400000e+03 
554.471  1.95100000e+03 
554.435  1.92200000e+03 
554.399  2.00300000e+03 
554.363  1.99400000e+03 
554.327  1.99800000e+03 
554.291  1.95300000e+03 
554.255  2.00600000e+03 
554.219  1.97800000e+03 
554.183  2.06700000e+03 
554.147  1.93400000e+03 
554.111  1.95700000e+03 
554.075  2.04800000e+03 
554.038  1.99300000e+03 
554.002  2.00500000e+03 
553.966  1.98800000e+03 
553.930  2.03700000e+03 
553.894  2.04700000e+03 
553.858  2.04100000e+03 
553.822  2.12800000e+03 
553.786  2.09400000e+03 
553.750  1.98600000e+03 
553.714  2.06800000e+03 
553.678  2.15800000e+03 
553.642  2.18900000e+03 
553.605  2.10200000e+03 
553.569  2.14900000e+03 
553.533  2.17000000e+03 
553.497  2.18600000e+03 
553.461  2.05300000e+03 
553.425  2.09100000e+03 
553.389  2.09600000e+03 
553.353  2.07600000e+03 
553.317  2.08800000e+03 
553.281  2.00900000e+03 
553.245  2.11100000e+03 
553.209  2.04600000e+03 
553.173  2.08800000e+03 
553.136  2.07000000e+03 
553.100  2.12700000e+03 
553.064  2.02300000e+03 
553.028  2.02700000e+03 
552.992  2.04700000e+03 
552.956  2.01800000e+03 
552.920  1.98600000e+03 
552.884  2.07400000e+03 
552.848  1.96000000e+03 
552.812  1.97500000e+03 
552.776  1.97800000e+03 
552.740  1.97000000e+03 
552.704  2.02500000e+03 
552.667  1.90500000e+03 
552.631  1.94400000e+03 
552.595  1.90700000e+03 
552.559  1.91200000e+03 
552.523  1.96800000e+03 
552.487  2.04300000e+03 
552.451  1.94100000e+03 
552.415  1.88200000e+03 
552.379  1.93100000e+03 
552.343  1.93800000e+03 
552.307  1.94400000e+03 
552.271  1.87600000e+03 
552.235  1.92700000e+03 
552.198  1.87500000e+03 
552.162  1.95600000e+03 
552.126  1.88200000e+03 
552.090  1.89200000e+03 
552.054  1.96900000e+03 
552.018  1.82000000e+03 
551.982  1.90900000e+03 
551.946  1.80900000e+03 
551.910  1.95300000e+03 
551.874  1.80500000e+03 
551.838  1.90400000e+03 
551.802  1.93100000e+03 
