EXPERIMENT FILE
Version = 2

[ Experiment Parameters ]
Experiment Description= Attempt1_20Cu111014.xps 
Number_of_Regions_in_Experiment= 10 

Original_File_name= C:\alexesca\data\Noise]\Attempt1_20Cu111014.xps.xps 
Instrument= HP ESCA West
Date= 11-11-2014
Time=  17:11:44

[ Layer Parameters ]
Layer_Type= XPS

[ Region 1 Parameters ]
Region_Description = Fixed552eV                         
BEcenter(eV) = 552.000000
BEwidth(eV) = 9.200000
BEstep(eV) = 0.035938
Dwell_Time(sec) = 1.000000
N_o_scans = 1000  
N_o_Channels = 256  
Scan_mode = 1  (FIXED)

[ Region 2 Parameters ]
Region_Description = Fixed552eV                         
BEcenter(eV) = 552.000000
BEwidth(eV) = 9.200000
BEstep(eV) = 0.035938
Dwell_Time(sec) = 1.000000
N_o_scans = 1000  
N_o_Channels = 256  
Scan_mode = 1  (FIXED)

[ Region 3 Parameters ]
Region_Description = Fixed552eV                         
BEcenter(eV) = 552.000000
BEwidth(eV) = 9.200000
BEstep(eV) = 0.035938
Dwell_Time(sec) = 1.000000
N_o_scans = 1000  
N_o_Channels = 256  
Scan_mode = 1  (FIXED)

[ Region 4 Parameters ]
Region_Description = Fixed552eV                         
BEcenter(eV) = 552.000000
BEwidth(eV) = 9.200000
BEstep(eV) = 0.035938
Dwell_Time(sec) = 1.000000
N_o_scans = 1000  
N_o_Channels = 256  
Scan_mode = 1  (FIXED)

[ Region 5 Parameters ]
Region_Description = Fixed552eV                         
BEcenter(eV) = 552.000000
BEwidth(eV) = 9.200000
BEstep(eV) = 0.035938
Dwell_Time(sec) = 1.000000
N_o_scans = 1000  
N_o_Channels = 256  
Scan_mode = 1  (FIXED)

[ Region 6 Parameters ]
Region_Description = Fixed552eV                         
BEcenter(eV) = 552.000000
BEwidth(eV) = 9.200000
BEstep(eV) = 0.035938
Dwell_Time(sec) = 1.000000
N_o_scans = 1000  
N_o_Channels = 256  
Scan_mode = 1  (FIXED)

[ Region 7 Parameters ]
Region_Description = Fixed552eV                         
BEcenter(eV) = 552.000000
BEwidth(eV) = 9.200000
BEstep(eV) = 0.035938
Dwell_Time(sec) = 1.000000
N_o_scans = 1000  
N_o_Channels = 256  
Scan_mode = 1  (FIXED)

[ Region 8 Parameters ]
Region_Description = Fixed552eV                         
BEcenter(eV) = 552.000000
BEwidth(eV) = 9.200000
BEstep(eV) = 0.035938
Dwell_Time(sec) = 1.000000
N_o_scans = 1000  
N_o_Channels = 256  
Scan_mode = 1  (FIXED)

[ Region 9 Parameters ]
Region_Description = Fixed552eV                         
BEcenter(eV) = 552.000000
BEwidth(eV) = 9.200000
BEstep(eV) = 0.035938
Dwell_Time(sec) = 1.000000
N_o_scans = 1000  
N_o_Channels = 256  
Scan_mode = 1  (FIXED)

[ Region 10 Parameters ]
Region_Description = Fixed552eV                         
BEcenter(eV) = 552.000000
BEwidth(eV) = 9.200000
BEstep(eV) = 0.035938
Dwell_Time(sec) = 1.000000
N_o_scans = 1000  
N_o_Channels = 256  
Scan_mode = 1  (FIXED)

[ L= 1 R= 1 ]
BEcenter= 552.000 
BEwidth= -9.200  
Excitation= 1486.600
Time_p_channel= 1000.000
Size= 256
556.600  1.62100000e+03 
556.564  1.67600000e+03 
556.528  1.69000000e+03 
556.492  1.66300000e+03 
556.456  1.78700000e+03 
556.420  1.73000000e+03 
556.384  1.65700000e+03 
556.347  1.83500000e+03 
556.311  1.69300000e+03 
556.275  1.74600000e+03 
556.239  1.77800000e+03 
556.203  1.78400000e+03 
556.167  1.78100000e+03 
556.131  1.81700000e+03 
556.095  1.78700000e+03 
556.059  1.77300000e+03 
556.023  1.73500000e+03 
555.987  1.77400000e+03 
555.951  1.75800000e+03 
555.915  1.76300000e+03 
555.878  1.73400000e+03 
555.842  1.83900000e+03 
555.806  1.80900000e+03 
555.770  1.80600000e+03 
555.734  1.68600000e+03 
555.698  1.80600000e+03 
555.662  1.81800000e+03 
555.626  1.80900000e+03 
555.590  1.78700000e+03 
555.554  1.89900000e+03 
555.518  1.86400000e+03 
555.482  1.90200000e+03 
555.445  1.90600000e+03 
555.409  1.94300000e+03 
555.373  1.86200000e+03 
555.337  1.84800000e+03 
555.301  1.93700000e+03 
555.265  1.76700000e+03 
555.229  1.92200000e+03 
555.193  1.95200000e+03 
555.157  1.87500000e+03 
555.121  1.86300000e+03 
555.085  1.91300000e+03 
555.049  1.88600000e+03 
555.013  1.91800000e+03 
554.976  1.83700000e+03 
554.940  1.96700000e+03 
554.904  2.02000000e+03 
554.868  1.94800000e+03 
554.832  1.96300000e+03 
554.796  1.97200000e+03 
554.760  1.96600000e+03 
554.724  1.97000000e+03 
554.688  1.98800000e+03 
554.652  1.97600000e+03 
554.616  2.02900000e+03 
554.580  2.00800000e+03 
554.544  1.90800000e+03 
554.507  1.95100000e+03 
554.471  1.97600000e+03 
554.435  1.99600000e+03 
554.399  1.98100000e+03 
554.363  1.90900000e+03 
554.327  1.96900000e+03 
554.291  1.93200000e+03 
554.255  2.05800000e+03 
554.219  1.96700000e+03 
554.183  1.97700000e+03 
554.147  2.00500000e+03 
554.111  1.97900000e+03 
554.075  2.02000000e+03 
554.038  1.95700000e+03 
554.002  2.08700000e+03 
553.966  2.00700000e+03 
553.930  2.05000000e+03 
553.894  2.08800000e+03 
553.858  2.06400000e+03 
553.822  2.14200000e+03 
553.786  2.07000000e+03 
553.750  2.06800000e+03 
553.714  2.09300000e+03 
553.678  2.02300000e+03 
553.642  2.13600000e+03 
553.605  2.16800000e+03 
553.569  2.15200000e+03 
553.533  2.15300000e+03 
553.497  2.20100000e+03 
553.461  2.14000000e+03 
553.425  2.15600000e+03 
553.389  2.09000000e+03 
553.353  2.08300000e+03 
553.317  2.15200000e+03 
553.281  2.06000000e+03 
553.245  2.00800000e+03 
553.209  2.04100000e+03 
553.173  2.02900000e+03 
553.136  2.01500000e+03 
553.100  2.05500000e+03 
553.064  2.03200000e+03 
553.028  2.06900000e+03 
552.992  1.98500000e+03 
552.956  2.08100000e+03 
552.920  2.00200000e+03 
552.884  2.06200000e+03 
552.848  2.06400000e+03 
552.812  2.05700000e+03 
552.776  2.00200000e+03 
552.740  2.01500000e+03 
552.704  2.02100000e+03 
552.667  2.01200000e+03 
552.631  1.97400000e+03 
552.595  2.01300000e+03 
552.559  1.98100000e+03 
552.523  1.93800000e+03 
552.487  1.90700000e+03 
552.451  1.94000000e+03 
552.415  1.86500000e+03 
552.379  1.93800000e+03 
552.343  1.90500000e+03 
552.307  1.88800000e+03 
552.271  1.89600000e+03 
552.235  1.95100000e+03 
552.198  1.92200000e+03 
552.162  1.85900000e+03 
552.126  1.92500000e+03 
552.090  1.84100000e+03 
552.054  1.92600000e+03 
552.018  1.84100000e+03 
551.982  1.80100000e+03 
551.946  1.86800000e+03 
551.910  1.82600000e+03 
551.874  1.80400000e+03 
551.838  1.74800000e+03 
551.802  1.82600000e+03 
551.765  1.76700000e+03 
551.729  1.90800000e+03 
551.693  1.78000000e+03 
551.657  1.80400000e+03 
551.621  1.85100000e+03 
551.585  1.76900000e+03 
551.549  1.72500000e+03 
551.513  1.80100000e+03 
551.477  1.86600000e+03 
551.441  1.86200000e+03 
551.405  1.79700000e+03 
551.369  1.79200000e+03 
551.333  1.81800000e+03 
551.296  1.81000000e+03 
551.260  1.78800000e+03 
551.224  1.76900000e+03 
551.188  1.73800000e+03 
551.152  1.80500000e+03 
551.116  1.83500000e+03 
551.080  1.72800000e+03 
551.044  1.64700000e+03 
551.008  1.75300000e+03 
550.972  1.70800000e+03 
550.936  1.79500000e+03 
550.900  1.71400000e+03 
550.864  1.69600000e+03 
550.827  1.72800000e+03 
550.791  1.70500000e+03 
550.755  1.70200000e+03 
550.719  1.63100000e+03 
550.683  1.68300000e+03 
550.647  1.61600000e+03 
550.611  1.62600000e+03 
550.575  1.63900000e+03 
550.539  1.61100000e+03 
550.503  1.63000000e+03 
550.467  1.65200000e+03 
550.431  1.59900000e+03 
550.395  1.64900000e+03 
550.358  1.61900000e+03 
550.322  1.64300000e+03 
550.286  1.61900000e+03 
550.250  1.64800000e+03 
550.214  1.71200000e+03 
550.178  1.65400000e+03 
550.142  1.71000000e+03 
550.106  1.69500000e+03 
550.070  1.64100000e+03 
550.034  1.55900000e+03 
549.998  1.74300000e+03 
549.962  1.69600000e+03 
549.925  1.67600000e+03 
549.889  1.67700000e+03 
549.853  1.60200000e+03 
549.817  1.68100000e+03 
549.781  1.61700000e+03 
549.745  1.59000000e+03 
549.709  1.57400000e+03 
549.673  1.60500000e+03 
549.637  1.58500000e+03 
549.601  1.57800000e+03 
549.565  1.52600000e+03 
549.529  1.54800000e+03 
549.493  1.57000000e+03 
549.456  1.50200000e+03 
549.420  1.51000000e+03 
549.384  1.61400000e+03 
549.348  1.39800000e+03 
549.312  1.43200000e+03 
549.276  1.46700000e+03 
549.240  1.50100000e+03 
549.204  1.58300000e+03 
549.168  1.49700000e+03 
549.132  1.49300000e+03 
549.096  1.47100000e+03 
549.060  1.47900000e+03 
549.024  1.42500000e+03 
548.987  1.43700000e+03 
548.951  1.34500000e+03 
548.915  1.38900000e+03 
548.879  1.40500000e+03 
548.843  1.39800000e+03 
548.807  1.42200000e+03 
548.771  1.43900000e+03 
548.735  1.32700000e+03 
548.699  1.35000000e+03 
548.663  1.32800000e+03 
548.627  1.35500000e+03 
548.591  1.33100000e+03 
548.555  1.33600000e+03 
548.518  1.30100000e+03 
548.482  1.32300000e+03 
548.446  1.33100000e+03 
548.410  1.30300000e+03 
548.374  1.32700000e+03 
548.338  1.35200000e+03 
548.302  1.33300000e+03 
548.266  1.32600000e+03 
548.230  1.32400000e+03 
548.194  1.28700000e+03 
548.158  1.34100000e+03 
548.122  1.24100000e+03 
548.085  1.23400000e+03 
548.049  1.28200000e+03 
548.013  1.22800000e+03 
547.977  1.23300000e+03 
547.941  1.28500000e+03 
547.905  1.25500000e+03 
547.869  1.25000000e+03 
547.833  1.13700000e+03 
547.797  1.27000000e+03 
547.761  9.92000000e+02 
547.725  1.00200000e+03 
547.689  1.03800000e+03 
547.653  8.73000000e+02 
547.616  9.35000000e+02 
547.580  9.56000000e+02 
547.544  6.14000000e+02 
547.508  6.04000000e+02 
547.472  3.05000000e+02 
547.436  0.00000000e+00 
547.400  0.00000000e+00 

[ L= 1 R= 2 ]
BEcenter= 552.000 
BEwidth= -9.200  
Excitation= 1486.600
Time_p_channel= 1000.000
Size= 256
556.600  1.62800000e+03 
556.564  1.68300000e+03 
556.528  1.67700000e+03 
556.492  1.80600000e+03 
556.456  1.72100000e+03 
556.420  1.73200000e+03 
556.384  1.76600000e+03 
556.347  1.68800000e+03 
556.311  1.79200000e+03 
556.275  1.78600000e+03 
556.239  1.74600000e+03 
556.203  1.72500000e+03 
556.167  1.77000000e+03 
556.131  1.80300000e+03 
556.095  1.86600000e+03 
556.059  1.77200000e+03 
556.023  1.77400000e+03 
555.987  1.75100000e+03 
555.951  1.79100000e+03 
555.915  1.78000000e+03 
555.878  1.71100000e+03 
555.842  1.80500000e+03 
555.806  1.83300000e+03 
555.770  1.79600000e+03 
555.734  1.78100000e+03 
555.698  1.85200000e+03 
555.662  1.88100000e+03 
555.626  1.80700000e+03 
555.590  1.80500000e+03 
555.554  1.87900000e+03 
555.518  1.82500000e+03 
555.482  1.79300000e+03 
555.445  1.80900000e+03 
555.409  1.96700000e+03 
555.373  1.79000000e+03 
555.337  1.84700000e+03 
555.301  1.84700000e+03 
555.265  1.90400000e+03 
555.229  1.92500000e+03 
555.193  1.92000000e+03 
555.157  2.00300000e+03 
555.121  1.83900000e+03 
555.085  1.88300000e+03 
555.049  1.86300000e+03 
555.013  1.92700000e+03 
554.976  1.92900000e+03 
554.940  1.93400000e+03 
554.904  1.97400000e+03 
554.868  1.94700000e+03 
554.832  1.93700000e+03 
554.796  1.99200000e+03 
554.760  1.99700000e+03 
554.724  1.91100000e+03 
554.688  2.00200000e+03 
554.652  1.99400000e+03 
554.616  1.98900000e+03 
554.580  1.89600000e+03 
554.544  2.05600000e+03 
554.507  2.02600000e+03 
554.471  2.01600000e+03 
554.435  1.96500000e+03 
554.399  1.91000000e+03 
554.363  1.97700000e+03 
554.327  1.97800000e+03 
554.291  2.00400000e+03 
554.255  1.98900000e+03 
554.219  1.91400000e+03 
554.183  2.08500000e+03 
554.147  2.06100000e+03 
554.111  1.98000000e+03 
554.075  2.01600000e+03 
554.038  2.03200000e+03 
554.002  2.10700000e+03 
553.966  2.05200000e+03 
553.930  2.00800000e+03 
553.894  2.14100000e+03 
553.858  2.09500000e+03 
553.822  2.11800000e+03 
553.786  2.08000000e+03 
553.750  2.08800000e+03 
553.714  2.04000000e+03 
553.678  2.11900000e+03 
553.642  2.10000000e+03 
553.605  2.14400000e+03 
553.569  2.18900000e+03 
553.533  2.18200000e+03 
553.497  2.09600000e+03 
553.461  2.15300000e+03 
553.425  2.07200000e+03 
553.389  2.09800000e+03 
553.353  2.04200000e+03 
553.317  2.12900000e+03 
553.281  2.03900000e+03 
553.245  2.09400000e+03 
553.209  2.01800000e+03 
553.173  2.07600000e+03 
553.136  2.09700000e+03 
553.100  2.10000000e+03 
553.064  2.05200000e+03 
553.028  2.06500000e+03 
552.992  2.02600000e+03 
552.956  2.06700000e+03 
552.920  2.08700000e+03 
552.884  2.02700000e+03 
552.848  2.07600000e+03 
552.812  2.09300000e+03 
552.776  1.96400000e+03 
552.740  2.00600000e+03 
552.704  2.03400000e+03 
552.667  1.94300000e+03 
552.631  1.99800000e+03 
552.595  1.96200000e+03 
552.559  1.93600000e+03 
552.523  1.94300000e+03 
552.487  1.99400000e+03 
552.451  1.89200000e+03 
552.415  1.93300000e+03 
552.379  1.99900000e+03 
552.343  1.90500000e+03 
552.307  1.89100000e+03 
552.271  1.99600000e+03 
552.235  1.94100000e+03 
552.198  1.90700000e+03 
552.162  1.96400000e+03 
552.126  1.89200000e+03 
552.090  2.00000000e+03 
552.054  1.80900000e+03 
552.018  1.89400000e+03 
551.982  1.85900000e+03 
551.946  1.82400000e+03 
551.910  1.90200000e+03 
551.874  1.81400000e+03 
551.838  1.84300000e+03 
551.802  1.81200000e+03 
551.765  1.86300000e+03 
551.729  1.90900000e+03 
551.693  1.90500000e+03 
551.657  1.81600000e+03 
551.621  1.82500000e+03 
551.585  1.84300000e+03 
551.549  1.76400000e+03 
551.513  1.85000000e+03 
551.477  1.80200000e+03 
551.441  1.84700000e+03 
551.405  1.81700000e+03 
551.369  1.78700000e+03 
551.333  1.75900000e+03 
551.296  1.73200000e+03 
551.260  1.71300000e+03 
551.224  1.75100000e+03 
551.188  1.73000000e+03 
551.152  1.78200000e+03 
551.116  1.71400000e+03 
551.080  1.76700000e+03 
551.044  1.67600000e+03 
551.008  1.68900000e+03 
550.972  1.71600000e+03 
550.936  1.73800000e+03 
550.900  1.63500000e+03 
550.864  1.81000000e+03 
550.827  1.76500000e+03 
550.791  1.66600000e+03 
550.755  1.63600000e+03 
550.719  1.67700000e+03 
550.683  1.70900000e+03 
550.647  1.69100000e+03 
550.611  1.65000000e+03 
550.575  1.68600000e+03 
550.539  1.67600000e+03 
550.503  1.64000000e+03 
550.467  1.66600000e+03 
550.431  1.62400000e+03 
550.395  1.64400000e+03 
550.358  1.68500000e+03 
550.322  1.59600000e+03 
550.286  1.65100000e+03 
550.250  1.64600000e+03 
550.214  1.59500000e+03 
550.178  1.60000000e+03 
550.142  1.60400000e+03 
550.106  1.68900000e+03 
550.070  1.66100000e+03 
550.034  1.64700000e+03 
549.998  1.67700000e+03 
549.962  1.59500000e+03 
549.925  1.57400000e+03 
549.889  1.70000000e+03 
549.853  1.53100000e+03 
549.817  1.57600000e+03 
549.781  1.65100000e+03 
549.745  1.54100000e+03 
549.709  1.60600000e+03 
549.673  1.50200000e+03 
549.637  1.54100000e+03 
549.601  1.56600000e+03 
549.565  1.64300000e+03 
549.529  1.54200000e+03 
549.493  1.55300000e+03 
549.456  1.44000000e+03 
549.420  1.49700000e+03 
549.384  1.52300000e+03 
549.348  1.51200000e+03 
549.312  1.53400000e+03 
549.276  1.56700000e+03 
549.240  1.47700000e+03 
549.204  1.51900000e+03 
549.168  1.43800000e+03 
549.132  1.50700000e+03 
549.096  1.45000000e+03 
549.060  1.45400000e+03 
549.024  1.44400000e+03 
548.987  1.39300000e+03 
548.951  1.45800000e+03 
548.915  1.40000000e+03 
548.879  1.40700000e+03 
548.843  1.34400000e+03 
548.807  1.39700000e+03 
548.771  1.39200000e+03 
548.735  1.39300000e+03 
548.699  1.38600000e+03 
548.663  1.37800000e+03 
548.627  1.34700000e+03 
548.591  1.33000000e+03 
548.555  1.27700000e+03 
548.518  1.36400000e+03 
548.482  1.23000000e+03 
548.446  1.32200000e+03 
548.410  1.28300000e+03 
548.374  1.31900000e+03 
548.338  1.28900000e+03 
548.302  1.28900000e+03 
548.266  1.28500000e+03 
548.230  1.30500000e+03 
548.194  1.23200000e+03 
548.158  1.31400000e+03 
548.122  1.22500000e+03 
548.085  1.24700000e+03 
548.049  1.30200000e+03 
548.013  1.18400000e+03 
547.977  1.24400000e+03 
547.941  1.30300000e+03 
547.905  1.24900000e+03 
547.869  1.14800000e+03 
547.833  1.05300000e+03 
547.797  1.33700000e+03 
547.761  9.73000000e+02 
547.725  1.01300000e+03 
547.689  1.05400000e+03 
547.653  8.10000000e+02 
547.616  9.29000000e+02 
547.580  9.74000000e+02 
547.544  7.05000000e+02 
547.508  6.66000000e+02 
547.472  3.31000000e+02 
547.436  0.00000000e+00 
547.400  0.00000000e+00 

[ L= 1 R= 3 ]
BEcenter= 552.000 
BEwidth= -9.200  
Excitation= 1486.600
Time_p_channel= 1000.000
Size= 256
556.600  1.67800000e+03 
556.564  1.69300000e+03 
556.528  1.64700000e+03 
556.492  1.75200000e+03 
556.456  1.80400000e+03 
556.420  1.82700000e+03 
556.384  1.70700000e+03 
556.347  1.73700000e+03 
556.311  1.73800000e+03 
556.275  1.82300000e+03 
556.239  1.83700000e+03 
556.203  1.72300000e+03 
556.167  1.80200000e+03 
556.131  1.82000000e+03 
556.095  1.81400000e+03 
556.059  1.79100000e+03 
556.023  1.78000000e+03 
555.987  1.78800000e+03 
555.951  1.76800000e+03 
555.915  1.80400000e+03 
555.878  1.84600000e+03 
555.842  1.78700000e+03 
555.806  1.79100000e+03 
555.770  1.78600000e+03 
555.734  1.74800000e+03 
555.698  1.75500000e+03 
555.662  1.83200000e+03 
555.626  1.79500000e+03 
555.590  1.75100000e+03 
555.554  1.82400000e+03 
555.518  1.82000000e+03 
555.482  1.80300000e+03 
555.445  1.88300000e+03 
555.409  1.86200000e+03 
555.373  1.83800000e+03 
555.337  1.89200000e+03 
555.301  1.89100000e+03 
555.265  1.85700000e+03 
555.229  1.87500000e+03 
555.193  1.91200000e+03 
555.157  1.81700000e+03 
555.121  1.95200000e+03 
555.085  1.82400000e+03 
555.049  1.88200000e+03 
555.013  1.92300000e+03 
554.976  1.94300000e+03 
554.940  1.91000000e+03 
554.904  1.96200000e+03 
554.868  1.95000000e+03 
554.832  2.01200000e+03 
554.796  2.01100000e+03 
554.760  1.96400000e+03 
554.724  1.92700000e+03 
554.688  1.98400000e+03 
554.652  1.99300000e+03 
554.616  1.99800000e+03 
554.580  1.89200000e+03 
554.544  1.96100000e+03 
554.507  1.89700000e+03 
554.471  1.95200000e+03 
554.435  2.05500000e+03 
554.399  1.96600000e+03 
554.363  1.95000000e+03 
554.327  1.98200000e+03 
554.291  1.94500000e+03 
554.255  1.99400000e+03 
554.219  2.03800000e+03 
554.183  2.07900000e+03 
554.147  2.01200000e+03 
554.111  1.93000000e+03 
554.075  1.92800000e+03 
554.038  1.97700000e+03 
554.002  2.05000000e+03 
553.966  2.02600000e+03 
553.930  2.11300000e+03 
553.894  2.09900000e+03 
553.858  2.01900000e+03 
553.822  2.10500000e+03 
553.786  2.13100000e+03 
553.750  2.09500000e+03 
553.714  2.10300000e+03 
553.678  2.09500000e+03 
553.642  2.09000000e+03 
553.605  2.10900000e+03 
553.569  2.08100000e+03 
553.533  2.16700000e+03 
553.497  2.12500000e+03 
553.461  2.18100000e+03 
553.425  2.18800000e+03 
553.389  2.10400000e+03 
553.353  2.08600000e+03 
553.317  2.06000000e+03 
553.281  2.09600000e+03 
553.245  2.07500000e+03 
553.209  2.05700000e+03 
553.173  2.15400000e+03 
553.136  2.06400000e+03 
553.100  1.94800000e+03 
553.064  2.01800000e+03 
553.028  2.04200000e+03 
552.992  2.06800000e+03 
552.956  2.07000000e+03 
552.920  1.96600000e+03 
552.884  2.08600000e+03 
552.848  2.02300000e+03 
552.812  2.04600000e+03 
552.776  1.98500000e+03 
552.740  2.03100000e+03 
552.704  2.04800000e+03 
552.667  2.04700000e+03 
552.631  1.98800000e+03 
552.595  1.93300000e+03 
552.559  1.94000000e+03 
552.523  1.87900000e+03 
552.487  2.02700000e+03 
552.451  1.89400000e+03 
552.415  1.86500000e+03 
552.379  1.93400000e+03 
552.343  1.94600000e+03 
552.307  1.90900000e+03 
552.271  1.96200000e+03 
552.235  1.88500000e+03 
552.198  1.92600000e+03 
552.162  1.98300000e+03 
552.126  1.91500000e+03 
552.090  1.93200000e+03 
552.054  1.89900000e+03 
552.018  1.91400000e+03 
551.982  1.93800000e+03 
551.946  1.91400000e+03 
551.910  1.85100000e+03 
551.874  1.89400000e+03 
551.838  1.88400000e+03 
551.802  1.86300000e+03 
