EXPERIMENT FILE
Version = 2

[ Experiment Parameters ]
Experiment Description= Nein 
Number_of_Regions_in_Experiment= 10 

Original_File_name= C:\alexesca\data\Noise]\Attempt1_90Cu111014.xps 
Instrument= HP ESCA West
Date= 11-14-2014
Time=  12:11:41

[ Layer Parameters ]
Layer_Type= XPS

[ Region 1 Parameters ]
Region_Description = Fixed552eV                         
BEcenter(eV) = 552.000000
BEwidth(eV) = 9.200000
BEstep(eV) = 0.035938
Dwell_Time(sec) = 1.000000
N_o_scans = 1000  
N_o_Channels = 256  
Scan_mode = 1  (FIXED)

[ Region 2 Parameters ]
Region_Description = Fixed552eV                         
BEcenter(eV) = 552.000000
BEwidth(eV) = 9.200000
BEstep(eV) = 0.035938
Dwell_Time(sec) = 1.000000
N_o_scans = 1000  
N_o_Channels = 256  
Scan_mode = 1  (FIXED)

[ Region 3 Parameters ]
Region_Description = Fixed552eV                         
BEcenter(eV) = 552.000000
BEwidth(eV) = 9.200000
BEstep(eV) = 0.035938
Dwell_Time(sec) = 1.000000
N_o_scans = 1000  
N_o_Channels = 256  
Scan_mode = 1  (FIXED)

[ Region 4 Parameters ]
Region_Description = Fixed552eV                         
BEcenter(eV) = 552.000000
BEwidth(eV) = 9.200000
BEstep(eV) = 0.035938
Dwell_Time(sec) = 1.000000
N_o_scans = 1000  
N_o_Channels = 256  
Scan_mode = 1  (FIXED)

[ Region 5 Parameters ]
Region_Description = Fixed552eV                         
BEcenter(eV) = 552.000000
BEwidth(eV) = 9.200000
BEstep(eV) = 0.035938
Dwell_Time(sec) = 1.000000
N_o_scans = 1000  
N_o_Channels = 256  
Scan_mode = 1  (FIXED)

[ Region 6 Parameters ]
Region_Description = Fixed552eV                         
BEcenter(eV) = 552.000000
BEwidth(eV) = 9.200000
BEstep(eV) = 0.035938
Dwell_Time(sec) = 1.000000
N_o_scans = 1000  
N_o_Channels = 256  
Scan_mode = 1  (FIXED)

[ Region 7 Parameters ]
Region_Description = Fixed552eV                         
BEcenter(eV) = 552.000000
BEwidth(eV) = 9.200000
BEstep(eV) = 0.035938
Dwell_Time(sec) = 1.000000
N_o_scans = 1000  
N_o_Channels = 256  
Scan_mode = 1  (FIXED)

[ Region 8 Parameters ]
Region_Description = Fixed552eV                         
BEcenter(eV) = 552.000000
BEwidth(eV) = 9.200000
BEstep(eV) = 0.035938
Dwell_Time(sec) = 1.000000
N_o_scans = 1000  
N_o_Channels = 256  
Scan_mode = 1  (FIXED)

[ Region 9 Parameters ]
Region_Description = Fixed552eV                         
BEcenter(eV) = 552.000000
BEwidth(eV) = 9.200000
BEstep(eV) = 0.035938
Dwell_Time(sec) = 1.000000
N_o_scans = 1000  
N_o_Channels = 256  
Scan_mode = 1  (FIXED)

[ Region 10 Parameters ]
Region_Description = Fixed552eV                         
BEcenter(eV) = 552.000000
BEwidth(eV) = 9.200000
BEstep(eV) = 0.035938
Dwell_Time(sec) = 1.000000
N_o_scans = 1000  
N_o_Channels = 256  
Scan_mode = 1  (FIXED)

[ L= 1 R= 1 ]
BEcenter= 552.000 
BEwidth= -9.200  
Excitation= 1486.600
Time_p_channel= 1000.000
Size= 256
556.600  1.62900000e+03 
556.564  1.67000000e+03 
556.528  1.64000000e+03 
556.492  1.72300000e+03 
556.456  1.83500000e+03 
556.420  1.75400000e+03 
556.384  1.72900000e+03 
556.347  1.73900000e+03 
556.311  1.75400000e+03 
556.275  1.74100000e+03 
556.239  1.81500000e+03 
556.203  1.73400000e+03 
556.167  1.77700000e+03 
556.131  1.75400000e+03 
556.095  1.79200000e+03 
556.059  1.77400000e+03 
556.023  1.77100000e+03 
555.987  1.77700000e+03 
555.951  1.70800000e+03 
555.915  1.78700000e+03 
555.878  1.67700000e+03 
555.842  1.79300000e+03 
555.806  1.78000000e+03 
555.770  1.76300000e+03 
555.734  1.84800000e+03 
555.698  1.83000000e+03 
555.662  1.77000000e+03 
555.626  1.80800000e+03 
555.590  1.78800000e+03 
555.554  1.84000000e+03 
555.518  1.79500000e+03 
555.482  1.94800000e+03 
555.445  1.86800000e+03 
555.409  1.86600000e+03 
555.373  1.92000000e+03 
555.337  1.89300000e+03 
555.301  1.82000000e+03 
555.265  1.99000000e+03 
555.229  1.90100000e+03 
555.193  1.84400000e+03 
555.157  1.89300000e+03 
555.121  1.80700000e+03 
555.085  1.87000000e+03 
555.049  1.97800000e+03 
555.013  1.92600000e+03 
554.976  1.94200000e+03 
554.940  1.90400000e+03 
554.904  1.94100000e+03 
554.868  2.00000000e+03 
554.832  1.99200000e+03 
554.796  2.00600000e+03 
554.760  2.02900000e+03 
554.724  1.99400000e+03 
554.688  1.96500000e+03 
554.652  1.96400000e+03 
554.616  2.02900000e+03 
554.580  2.01400000e+03 
554.544  2.00700000e+03 
554.507  1.94000000e+03 
554.471  1.92600000e+03 
554.435  1.97700000e+03 
554.399  1.95300000e+03 
554.363  1.95100000e+03 
554.327  2.01600000e+03 
554.291  1.97600000e+03 
554.255  1.99500000e+03 
554.219  1.95200000e+03 
554.183  2.01500000e+03 
554.147  1.96200000e+03 
554.111  2.03800000e+03 
554.075  2.03800000e+03 
554.038  1.91300000e+03 
554.002  2.06600000e+03 
553.966  2.01500000e+03 
553.930  2.00800000e+03 
553.894  2.04100000e+03 
553.858  2.02500000e+03 
553.822  2.05600000e+03 
553.786  2.06500000e+03 
553.750  2.11200000e+03 
553.714  2.10500000e+03 
553.678  2.06900000e+03 
553.642  2.12200000e+03 
553.605  2.07200000e+03 
553.569  2.22400000e+03 
553.533  2.20400000e+03 
553.497  2.16200000e+03 
553.461  2.10800000e+03 
553.425  2.09900000e+03 
553.389  2.06600000e+03 
553.353  2.12500000e+03 
553.317  2.13000000e+03 
553.281  2.12000000e+03 
553.245  2.01800000e+03 
553.209  2.05400000e+03 
553.173  2.05300000e+03 
553.136  2.09500000e+03 
553.100  1.99600000e+03 
553.064  2.02700000e+03 
553.028  1.98900000e+03 
552.992  2.03900000e+03 
552.956  2.01400000e+03 
552.920  2.07000000e+03 
552.884  2.10200000e+03 
552.848  2.05300000e+03 
552.812  1.94700000e+03 
552.776  2.01000000e+03 
552.740  2.05100000e+03 
552.704  1.96800000e+03 
552.667  2.04700000e+03 
552.631  1.93200000e+03 
552.595  2.02000000e+03 
552.559  1.90100000e+03 
552.523  1.92500000e+03 
552.487  1.98500000e+03 
552.451  1.92000000e+03 
552.415  1.91200000e+03 
552.379  1.91900000e+03 
552.343  1.95500000e+03 
552.307  1.86200000e+03 
552.271  1.93900000e+03 
552.235  1.83400000e+03 
552.198  1.94300000e+03 
552.162  1.99800000e+03 
552.126  1.95900000e+03 
552.090  1.99800000e+03 
552.054  1.86700000e+03 
552.018  1.87400000e+03 
551.982  1.83400000e+03 
551.946  1.90100000e+03 
551.910  1.89100000e+03 
551.874  1.79400000e+03 
551.838  1.77400000e+03 
551.802  1.80200000e+03 
551.765  1.88900000e+03 
551.729  1.87100000e+03 
551.693  1.87100000e+03 
551.657  1.80100000e+03 
551.621  1.85500000e+03 
551.585  1.78400000e+03 
551.549  1.76700000e+03 
551.513  1.80500000e+03 
551.477  1.85400000e+03 
551.441  1.86700000e+03 
551.405  1.73800000e+03 
551.369  1.84800000e+03 
551.333  1.84100000e+03 
551.296  1.76700000e+03 
551.260  1.76400000e+03 
551.224  1.71300000e+03 
551.188  1.69000000e+03 
551.152  1.80100000e+03 
551.116  1.80400000e+03 
551.080  1.74100000e+03 
551.044  1.78900000e+03 
551.008  1.73100000e+03 
550.972  1.76300000e+03 
550.936  1.73700000e+03 
550.900  1.74700000e+03 
550.864  1.66500000e+03 
550.827  1.62600000e+03 
550.791  1.75400000e+03 
550.755  1.73100000e+03 
550.719  1.65700000e+03 
550.683  1.69900000e+03 
550.647  1.65400000e+03 
550.611  1.68400000e+03 
550.575  1.65800000e+03 
550.539  1.67500000e+03 
550.503  1.61000000e+03 
550.467  1.66400000e+03 
550.431  1.62800000e+03 
550.395  1.62700000e+03 
550.358  1.63900000e+03 
550.322  1.59500000e+03 
550.286  1.57700000e+03 
550.250  1.62900000e+03 
550.214  1.68000000e+03 
550.178  1.68500000e+03 
550.142  1.68500000e+03 
550.106  1.68300000e+03 
550.070  1.66500000e+03 
550.034  1.75900000e+03 
549.998  1.61800000e+03 
549.962  1.65500000e+03 
549.925  1.67900000e+03 
549.889  1.67100000e+03 
549.853  1.58700000e+03 
549.817  1.56100000e+03 
549.781  1.62800000e+03 
549.745  1.60800000e+03 
549.709  1.68300000e+03 
549.673  1.62400000e+03 
549.637  1.53100000e+03 
549.601  1.59300000e+03 
549.565  1.57700000e+03 
549.529  1.52000000e+03 
549.493  1.58300000e+03 
549.456  1.52900000e+03 
549.420  1.53200000e+03 
549.384  1.43400000e+03 
549.348  1.49800000e+03 
549.312  1.45700000e+03 
549.276  1.53000000e+03 
549.240  1.52500000e+03 
549.204  1.52000000e+03 
549.168  1.54700000e+03 
549.132  1.46500000e+03 
549.096  1.48100000e+03 
549.060  1.52300000e+03 
549.024  1.39800000e+03 
548.987  1.45500000e+03 
548.951  1.44100000e+03 
548.915  1.41400000e+03 
548.879  1.42800000e+03 
548.843  1.37200000e+03 
548.807  1.40900000e+03 
548.771  1.42500000e+03 
548.735  1.30400000e+03 
548.699  1.35100000e+03 
548.663  1.31500000e+03 
548.627  1.40100000e+03 
548.591  1.34000000e+03 
548.555  1.36200000e+03 
548.518  1.25400000e+03 
548.482  1.33400000e+03 
548.446  1.28600000e+03 
548.410  1.34300000e+03 
548.374  1.34000000e+03 
548.338  1.31200000e+03 
548.302  1.31300000e+03 
548.266  1.29800000e+03 
548.230  1.27100000e+03 
548.194  1.29100000e+03 
548.158  1.30900000e+03 
548.122  1.29800000e+03 
548.085  1.29500000e+03 
548.049  1.29600000e+03 
548.013  1.25200000e+03 
547.977  1.25700000e+03 
547.941  1.28600000e+03 
547.905  1.26600000e+03 
547.869  1.23000000e+03 
547.833  1.16500000e+03 
547.797  1.16800000e+03 
547.761  1.00400000e+03 
547.725  1.02900000e+03 
547.689  9.94000000e+02 
547.653  8.88000000e+02 
547.616  1.00200000e+03 
547.580  9.68000000e+02 
547.544  7.01000000e+02 
547.508  6.27000000e+02 
547.472  3.19000000e+02 
547.436  0.00000000e+00 
547.400  0.00000000e+00 

[ L= 1 R= 2 ]
BEcenter= 552.000 
BEwidth= -9.200  
Excitation= 1486.600
Time_p_channel= 1000.000
Size= 256
556.600  1.65100000e+03 
556.564  1.69400000e+03 
556.528  1.70900000e+03 
556.492  1.72000000e+03 
556.456  1.72800000e+03 
556.420  1.81400000e+03 
556.384  1.78600000e+03 
556.347  1.78100000e+03 
556.311  1.70300000e+03 
556.275  1.79700000e+03 
556.239  1.77200000e+03 
556.203  1.75600000e+03 
556.167  1.77100000e+03 
556.131  1.75000000e+03 
556.095  1.77600000e+03 
556.059  1.83300000e+03 
556.023  1.80700000e+03 
555.987  1.79200000e+03 
555.951  1.68200000e+03 
555.915  1.84000000e+03 
555.878  1.78200000e+03 
555.842  1.79200000e+03 
555.806  1.83100000e+03 
555.770  1.82300000e+03 
555.734  1.81000000e+03 
555.698  1.85500000e+03 
555.662  1.81600000e+03 
555.626  1.78600000e+03 
555.590  1.83300000e+03 
555.554  1.80400000e+03 
555.518  1.80000000e+03 
555.482  1.83100000e+03 
555.445  1.75200000e+03 
555.409  1.96000000e+03 
555.373  1.81900000e+03 
555.337  1.90300000e+03 
555.301  1.83700000e+03 
555.265  1.85500000e+03 
555.229  1.93100000e+03 
555.193  1.89600000e+03 
555.157  1.84800000e+03 
555.121  1.92700000e+03 
555.085  1.96000000e+03 
555.049  1.94000000e+03 
555.013  1.89600000e+03 
554.976  1.96400000e+03 
554.940  1.97800000e+03 
554.904  1.84000000e+03 
554.868  2.02600000e+03 
554.832  2.03800000e+03 
554.796  1.94700000e+03 
554.760  1.88000000e+03 
554.724  2.00100000e+03 
554.688  2.01100000e+03 
554.652  1.99300000e+03 
554.616  1.95700000e+03 
554.580  1.98400000e+03 
554.544  2.05100000e+03 
554.507  2.07800000e+03 
554.471  1.98900000e+03 
554.435  1.99700000e+03 
554.399  1.92600000e+03 
554.363  1.99100000e+03 
554.327  1.97000000e+03 
554.291  1.97200000e+03 
554.255  2.00200000e+03 
554.219  1.94900000e+03 
554.183  1.99100000e+03 
554.147  2.00000000e+03 
554.111  1.94900000e+03 
554.075  2.09600000e+03 
554.038  2.02200000e+03 
554.002  2.01600000e+03 
553.966  2.04000000e+03 
553.930  2.06700000e+03 
553.894  2.08300000e+03 
553.858  2.06200000e+03 
553.822  2.04700000e+03 
553.786  2.02900000e+03 
553.750  2.10900000e+03 
553.714  2.10300000e+03 
553.678  2.16600000e+03 
553.642  2.19400000e+03 
553.605  2.10400000e+03 
553.569  2.14000000e+03 
553.533  2.18600000e+03 
553.497  2.14900000e+03 
553.461  2.14300000e+03 
553.425  2.16800000e+03 
553.389  2.08500000e+03 
553.353  2.15700000e+03 
553.317  2.08400000e+03 
553.281  2.11200000e+03 
553.245  2.10500000e+03 
553.209  2.03800000e+03 
553.173  2.08700000e+03 
553.136  2.13300000e+03 
553.100  2.06800000e+03 
553.064  2.03400000e+03 
553.028  1.99600000e+03 
552.992  2.06300000e+03 
552.956  2.00200000e+03 
552.920  2.07500000e+03 
552.884  2.02600000e+03 
552.848  1.96100000e+03 
552.812  2.02400000e+03 
552.776  2.04400000e+03 
552.740  1.98800000e+03 
552.704  1.95900000e+03 
552.667  1.98500000e+03 
552.631  2.05300000e+03 
552.595  1.94300000e+03 
552.559  1.88900000e+03 
552.523  1.97600000e+03 
552.487  1.90800000e+03 
552.451  2.02800000e+03 
552.415  2.00200000e+03 
552.379  1.89500000e+03 
552.343  1.91100000e+03 
552.307  1.90200000e+03 
552.271  1.98200000e+03 
552.235  1.91100000e+03 
552.198  1.91600000e+03 
552.162  1.87300000e+03 
552.126  1.94600000e+03 
552.090  1.86900000e+03 
552.054  1.83300000e+03 
552.018  1.83100000e+03 
551.982  1.84400000e+03 
551.946  1.87700000e+03 
551.910  1.80000000e+03 
551.874  1.90900000e+03 
551.838  1.83000000e+03 
551.802  1.85700000e+03 
551.765  1.90300000e+03 
551.729  1.88900000e+03 
551.693  1.85100000e+03 
551.657  1.86700000e+03 
551.621  1.75800000e+03 
551.585  1.79400000e+03 
551.549  1.75600000e+03 
551.513  1.84800000e+03 
551.477  1.79100000e+03 
551.441  1.74800000e+03 
551.405  1.80600000e+03 
551.369  1.80500000e+03 
551.333  1.80600000e+03 
551.296  1.74600000e+03 
551.260  1.75400000e+03 
551.224  1.70400000e+03 
551.188  1.73300000e+03 
551.152  1.81100000e+03 
551.116  1.80100000e+03 
551.080  1.72900000e+03 
551.044  1.80800000e+03 
551.008  1.66700000e+03 
550.972  1.71600000e+03 
550.936  1.75500000e+03 
550.900  1.79500000e+03 
550.864  1.75900000e+03 
550.827  1.64800000e+03 
550.791  1.68000000e+03 
550.755  1.73100000e+03 
550.719  1.74700000e+03 
550.683  1.70200000e+03 
550.647  1.69800000e+03 
550.611  1.65500000e+03 
550.575  1.67700000e+03 
550.539  1.64800000e+03 
550.503  1.68000000e+03 
550.467  1.70400000e+03 
550.431  1.63700000e+03 
550.395  1.66000000e+03 
550.358  1.57300000e+03 
550.322  1.59600000e+03 
550.286  1.67100000e+03 
550.250  1.70100000e+03 
550.214  1.69400000e+03 
550.178  1.64700000e+03 
550.142  1.62800000e+03 
550.106  1.67200000e+03 
550.070  1.70200000e+03 
550.034  1.61700000e+03 
549.998  1.67800000e+03 
549.962  1.68100000e+03 
549.925  1.65800000e+03 
549.889  1.65100000e+03 
549.853  1.61500000e+03 
549.817  1.60700000e+03 
549.781  1.61800000e+03 
549.745  1.60000000e+03 
549.709  1.58600000e+03 
549.673  1.51100000e+03 
549.637  1.57000000e+03 
549.601  1.50900000e+03 
549.565  1.58700000e+03 
549.529  1.55300000e+03 
549.493  1.53500000e+03 
549.456  1.55300000e+03 
549.420  1.53200000e+03 
549.384  1.48800000e+03 
549.348  1.52900000e+03 
549.312  1.46800000e+03 
549.276  1.48500000e+03 
549.240  1.53800000e+03 
549.204  1.49900000e+03 
549.168  1.45100000e+03 
549.132  1.53800000e+03 
549.096  1.41200000e+03 
549.060  1.47000000e+03 
549.024  1.47700000e+03 
548.987  1.43700000e+03 
548.951  1.45800000e+03 
548.915  1.44500000e+03 
548.879  1.42500000e+03 
548.843  1.46000000e+03 
548.807  1.38900000e+03 
548.771  1.42800000e+03 
548.735  1.37800000e+03 
548.699  1.40000000e+03 
548.663  1.43000000e+03 
548.627  1.38800000e+03 
548.591  1.34800000e+03 
548.555  1.33100000e+03 
548.518  1.35200000e+03 
548.482  1.35400000e+03 
548.446  1.36000000e+03 
548.410  1.33000000e+03 
548.374  1.30000000e+03 
548.338  1.28200000e+03 
548.302  1.32700000e+03 
548.266  1.35600000e+03 
548.230  1.36900000e+03 
548.194  1.26700000e+03 
548.158  1.24700000e+03 
548.122  1.29200000e+03 
548.085  1.28700000e+03 
548.049  1.30100000e+03 
548.013  1.25100000e+03 
547.977  1.30700000e+03 
547.941  1.33800000e+03 
547.905  1.21600000e+03 
547.869  1.27900000e+03 
547.833  1.16900000e+03 
547.797  1.28000000e+03 
547.761  9.78000000e+02 
547.725  1.04700000e+03 
547.689  1.10100000e+03 
547.653  8.72000000e+02 
547.616  9.13000000e+02 
547.580  9.78000000e+02 
547.544  6.91000000e+02 
547.508  6.89000000e+02 
547.472  3.60000000e+02 
547.436  0.00000000e+00 
547.400  0.00000000e+00 

[ L= 1 R= 3 ]
BEcenter= 552.000 
BEwidth= -9.200  
Excitation= 1486.600
Time_p_channel= 1000.000
Size= 256
556.600  1.67600000e+03 
556.564  1.75200000e+03 
556.528  1.77100000e+03 
556.492  1.66200000e+03 
556.456  1.73400000e+03 
556.420  1.75400000e+03 
556.384  1.72400000e+03 
556.347  1.73100000e+03 
556.311  1.75700000e+03 
556.275  1.74300000e+03 
556.239  1.82100000e+03 
556.203  1.80400000e+03 
556.167  1.81100000e+03 
556.131  1.75700000e+03 
556.095  1.84800000e+03 
556.059  1.75500000e+03 
556.023  1.82600000e+03 
555.987  1.75700000e+03 
555.951  1.72000000e+03 
555.915  1.74900000e+03 
555.878  1.76300000e+03 
555.842  1.79500000e+03 
555.806  1.79100000e+03 
555.770  1.79600000e+03 
555.734  1.77100000e+03 
555.698  1.71100000e+03 
555.662  1.76700000e+03 
555.626  1.86800000e+03 
555.590  1.90400000e+03 
555.554  1.84300000e+03 
555.518  1.83800000e+03 
555.482  1.91800000e+03 
555.445  1.81800000e+03 
555.409  1.88300000e+03 
555.373  1.92600000e+03 
555.337  1.92400000e+03 
555.301  1.87800000e+03 
555.265  1.91900000e+03 
555.229  1.92100000e+03 
555.193  1.92300000e+03 
555.157  1.86700000e+03 
555.121  1.82400000e+03 
555.085  1.88100000e+03 
555.049  1.95500000e+03 
555.013  1.88600000e+03 
554.976  1.88600000e+03 
554.940  1.92000000e+03 
554.904  1.95100000e+03 
554.868  2.00600000e+03 
554.832  2.02700000e+03 
554.796  2.01400000e+03 
554.760  2.03900000e+03 
554.724  1.96300000e+03 
554.688  2.00700000e+03 
554.652  1.99300000e+03 
554.616  2.04000000e+03 
554.580  1.99600000e+03 
554.544  2.00500000e+03 
554.507  1.93100000e+03 
554.471  2.02500000e+03 
554.435  1.98700000e+03 
554.399  1.96400000e+03 
554.363  1.88400000e+03 
554.327  1.99600000e+03 
554.291  1.95700000e+03 
554.255  1.98800000e+03 
554.219  1.98800000e+03 
554.183  1.99000000e+03 
554.147  2.02900000e+03 
554.111  1.99500000e+03 
554.075  1.97000000e+03 
554.038  2.07500000e+03 
554.002  2.04600000e+03 
553.966  1.97000000e+03 
553.930  2.10600000e+03 
553.894  2.04300000e+03 
553.858  2.15700000e+03 
553.822  2.06400000e+03 
553.786  2.06200000e+03 
553.750  2.02400000e+03 
553.714  2.09000000e+03 
553.678  2.15300000e+03 
553.642  2.12400000e+03 
553.605  2.10900000e+03 
553.569  2.16500000e+03 
553.533  2.08000000e+03 
553.497  2.22200000e+03 
553.461  2.09200000e+03 
553.425  2.21800000e+03 
553.389  2.08600000e+03 
553.353  2.10000000e+03 
553.317  2.05200000e+03 
553.281  2.06100000e+03 
553.245  1.98300000e+03 
553.209  2.04500000e+03 
553.173  2.10000000e+03 
553.136  2.07500000e+03 
553.100  2.08700000e+03 
553.064  2.06600000e+03 
553.028  2.00900000e+03 
552.992  2.07000000e+03 
552.956  2.08700000e+03 
552.920  1.99800000e+03 
552.884  2.01200000e+03 
552.848  2.01900000e+03 
552.812  1.98100000e+03 
552.776  2.02200000e+03 
552.740  1.98000000e+03 
552.704  1.93800000e+03 
552.667  2.03600000e+03 
552.631  1.92100000e+03 
552.595  1.95400000e+03 
552.559  1.99000000e+03 
552.523  1.96400000e+03 
552.487  1.94900000e+03 
552.451  1.99100000e+03 
552.415  1.96700000e+03 
552.379  1.88100000e+03 
552.343  1.91200000e+03 
552.307  1.88000000e+03 
552.271  2.00700000e+03 
552.235  1.85100000e+03 
552.198  1.90000000e+03 
552.162  1.98200000e+03 
552.126  1.94600000e+03 
552.090  1.97200000e+03 
552.054  1.89900000e+03 
552.018  1.88100000e+03 
551.982  1.79600000e+03 
551.946  1.89900000e+03 
551.910  1.88800000e+03 
551.874  1.79800000e+03 
551.838  1.91600000e+03 
551.802  1.84000000e+03 
551.765  1.88600000e+03 
