EXPERIMENT FILE
Version = 2

[ Experiment Parameters ]
Experiment Description= 6_28_13 Si Survey_2 
Number_of_Regions_in_Experiment= 1 

Original_File_name= C:\alexesca\data\Surveys\06_28_13_Si_Survey_2.xps 
Instrument= HP ESCA West
Date= 06-28-2013
Time=  14:19:53

[ Layer Parameters ]
Layer_Type= XPS

[ Region 1 Parameters ]
Region_Description = 50-200eV (3x) 1 sec dwell time
BEcenter(eV) = 125.000000
BEwidth(eV) = 150.000000
BEstep(eV) = 0.035938
Dwell_Time(sec) = 1.000000
N_o_scans = 3  
N_o_Channels = 4174  
Scan_mode = 0  (DITHERED)

[ L= 1 R= 1 ]
BEcenter= 125.000 
BEwidth= -149.967
Excitation= 1486.600
Time_p_channel= 768.000 
Size= 4174
199.984  7.95000000e+02 
199.948  7.41000000e+02 
199.912  7.59000000e+02 
199.876  7.93000000e+02 
199.840  8.15000000e+02 
199.804  7.62000000e+02 
199.768  7.66000000e+02 
199.732  7.95000000e+02 
199.696  8.06000000e+02 
199.660  7.60000000e+02 
199.624  7.06000000e+02 
199.588  7.14000000e+02 
199.552  7.75000000e+02 
199.516  7.84000000e+02 
199.480  7.95000000e+02 
199.445  7.55000000e+02 
199.409  7.96000000e+02 
199.373  7.43000000e+02 
199.337  7.22000000e+02 
199.301  7.13000000e+02 
199.265  7.26000000e+02 
199.229  6.67000000e+02 
199.193  7.22000000e+02 
199.157  7.36000000e+02 
199.121  6.87000000e+02 
199.085  7.22000000e+02 
199.049  6.91000000e+02 
199.013  7.30000000e+02 
198.977  7.75000000e+02 
198.941  7.51000000e+02 
198.905  7.08000000e+02 
198.870  6.95000000e+02 
198.834  7.26000000e+02 
198.798  7.30000000e+02 
198.762  7.19000000e+02 
198.726  6.85000000e+02 
198.690  6.83000000e+02 
198.654  6.79000000e+02 
198.618  7.41000000e+02 
198.582  7.16000000e+02 
198.546  6.99000000e+02 
198.510  7.47000000e+02 
198.474  7.29000000e+02 
198.438  6.91000000e+02 
198.402  7.38000000e+02 
198.366  6.64000000e+02 
198.330  6.85000000e+02 
198.295  7.12000000e+02 
198.259  6.75000000e+02 
198.223  7.12000000e+02 
198.187  7.05000000e+02 
198.151  7.23000000e+02 
198.115  7.39000000e+02 
198.079  7.10000000e+02 
198.043  7.16000000e+02 
198.007  7.18000000e+02 
197.971  7.34000000e+02 
197.935  6.76000000e+02 
197.899  7.58000000e+02 
197.863  7.57000000e+02 
197.827  7.08000000e+02 
197.791  7.11000000e+02 
197.755  6.75000000e+02 
197.720  7.41000000e+02 
197.684  7.25000000e+02 
197.648  7.09000000e+02 
197.612  8.12000000e+02 
197.576  7.51000000e+02 
197.540  7.39000000e+02 
197.504  7.42000000e+02 
197.468  7.51000000e+02 
197.432  7.45000000e+02 
197.396  7.71000000e+02 
197.360  7.39000000e+02 
197.324  7.65000000e+02 
197.288  7.62000000e+02 
197.252  8.30000000e+02 
197.216  7.54000000e+02 
197.180  8.34000000e+02 
197.145  8.04000000e+02 
197.109  7.92000000e+02 
197.073  7.95000000e+02 
197.037  8.04000000e+02 
197.001  7.78000000e+02 
196.965  8.32000000e+02 
196.929  7.91000000e+02 
196.893  8.29000000e+02 
196.857  8.63000000e+02 
196.821  8.67000000e+02 
196.785  8.81000000e+02 
196.749  9.04000000e+02 
196.713  8.42000000e+02 
196.677  9.19000000e+02 
196.641  9.33000000e+02 
196.605  9.71000000e+02 
196.570  9.30000000e+02 
196.534  9.27000000e+02 
196.498  9.21000000e+02 
196.462  9.69000000e+02 
196.426  9.92000000e+02 
196.390  9.98000000e+02 
196.354  1.00100000e+03 
196.318  1.06300000e+03 
196.282  1.00800000e+03 
196.246  1.02000000e+03 
196.210  1.06800000e+03 
196.174  1.03500000e+03 
196.138  1.07400000e+03 
196.102  1.07300000e+03 
196.066  1.05300000e+03 
196.030  1.12000000e+03 
195.995  1.12500000e+03 
195.959  1.15000000e+03 
195.923  1.15400000e+03 
195.887  1.19600000e+03 
195.851  1.15300000e+03 
195.815  1.32200000e+03 
195.779  1.21000000e+03 
195.743  1.23500000e+03 
195.707  1.25800000e+03 
195.671  1.24700000e+03 
195.635  1.25500000e+03 
195.599  1.33300000e+03 
195.563  1.29800000e+03 
195.527  1.27400000e+03 
195.491  1.40500000e+03 
195.455  1.35200000e+03 
195.420  1.31200000e+03 
195.384  1.44300000e+03 
195.348  1.36800000e+03 
195.312  1.39600000e+03 
195.276  1.33800000e+03 
195.240  1.39200000e+03 
195.204  1.46300000e+03 
195.168  1.40700000e+03 
195.132  1.36400000e+03 
195.096  1.48800000e+03 
195.060  1.46400000e+03 
195.024  1.43500000e+03 
194.988  1.36200000e+03 
194.952  1.38800000e+03 
194.916  1.38600000e+03 
194.880  1.38800000e+03 
194.845  1.37600000e+03 
194.809  1.35900000e+03 
194.773  1.33300000e+03 
194.737  1.42100000e+03 
194.701  1.38300000e+03 
194.665  1.35100000e+03 
194.629  1.33500000e+03 
194.593  1.35700000e+03 
194.557  1.39100000e+03 
194.521  1.35700000e+03 
194.485  1.29100000e+03 
194.449  1.28900000e+03 
194.413  1.31800000e+03 
194.377  1.34700000e+03 
194.341  1.24700000e+03 
194.305  1.29800000e+03 
194.270  1.29100000e+03 
194.234  1.23600000e+03 
194.198  1.17400000e+03 
194.162  1.19200000e+03 
194.126  1.24300000e+03 
194.090  1.24800000e+03 
194.054  1.19600000e+03 
194.018  1.16000000e+03 
193.982  1.19600000e+03 
193.946  1.18700000e+03 
193.910  1.12600000e+03 
193.874  1.13100000e+03 
193.838  1.12900000e+03 
193.802  1.15100000e+03 
193.766  1.11000000e+03 
193.730  1.10900000e+03 
193.695  1.04800000e+03 
193.659  1.05400000e+03 
193.623  1.01000000e+03 
193.587  1.06100000e+03 
193.551  1.04400000e+03 
193.515  1.01900000e+03 
193.479  1.00400000e+03 
193.443  9.87000000e+02 
193.407  9.58000000e+02 
193.371  9.02000000e+02 
193.335  9.89000000e+02 
193.299  1.02000000e+03 
193.263  9.32000000e+02 
193.227  9.26000000e+02 
193.191  9.16000000e+02 
193.155  8.53000000e+02 
193.120  9.48000000e+02 
193.084  8.91000000e+02 
193.048  8.95000000e+02 
193.012  8.52000000e+02 
192.976  8.73000000e+02 
192.940  8.69000000e+02 
192.904  8.54000000e+02 
192.868  8.63000000e+02 
192.832  8.54000000e+02 
192.796  8.41000000e+02 
192.760  8.28000000e+02 
192.724  8.57000000e+02 
192.688  8.35000000e+02 
192.652  8.21000000e+02 
192.616  8.06000000e+02 
192.580  8.35000000e+02 
192.545  7.96000000e+02 
192.509  7.76000000e+02 
192.473  8.10000000e+02 
192.437  8.07000000e+02 
192.401  7.85000000e+02 
192.365  7.66000000e+02 
192.329  7.70000000e+02 
192.293  7.84000000e+02 
192.257  7.63000000e+02 
192.221  7.62000000e+02 
192.185  7.61000000e+02 
192.149  7.59000000e+02 
192.113  7.29000000e+02 
192.077  7.33000000e+02 
192.041  7.83000000e+02 
192.005  6.74000000e+02 
191.970  7.54000000e+02 
191.934  7.08000000e+02 
191.898  7.20000000e+02 
191.862  7.39000000e+02 
191.826  6.71000000e+02 
191.790  6.92000000e+02 
191.754  7.00000000e+02 
191.718  7.34000000e+02 
191.682  7.05000000e+02 
191.646  7.12000000e+02 
191.610  6.89000000e+02 
191.574  7.06000000e+02 
191.538  7.00000000e+02 
191.502  6.94000000e+02 
191.466  6.72000000e+02 
191.430  7.31000000e+02 
191.395  6.92000000e+02 
191.359  6.48000000e+02 
191.323  6.87000000e+02 
191.287  6.88000000e+02 
191.251  6.50000000e+02 
191.215  6.63000000e+02 
191.179  6.80000000e+02 
191.143  6.25000000e+02 
191.107  6.46000000e+02 
191.071  6.70000000e+02 
191.035  6.73000000e+02 
190.999  6.77000000e+02 
190.963  6.49000000e+02 
190.927  6.33000000e+02 
190.891  6.85000000e+02 
190.855  6.91000000e+02 
190.820  6.61000000e+02 
190.784  6.50000000e+02 
190.748  6.58000000e+02 
190.712  6.56000000e+02 
190.676  6.02000000e+02 
190.640  6.11000000e+02 
190.604  6.97000000e+02 
190.568  6.16000000e+02 
190.532  6.43000000e+02 
190.496  5.88000000e+02 
190.460  6.41000000e+02 
190.424  6.48000000e+02 
190.388  6.55000000e+02 
190.352  6.47000000e+02 
190.316  6.33000000e+02 
190.280  6.46000000e+02 
190.245  5.92000000e+02 
190.209  6.06000000e+02 
190.173  5.93000000e+02 
190.137  6.32000000e+02 
190.101  6.20000000e+02 
190.065  6.26000000e+02 
190.029  6.24000000e+02 
189.993  6.06000000e+02 
189.957  6.20000000e+02 
189.921  5.73000000e+02 
189.885  6.15000000e+02 
189.849  5.79000000e+02 
189.813  5.91000000e+02 
189.777  6.17000000e+02 
189.741  5.65000000e+02 
189.705  5.72000000e+02 
189.670  5.69000000e+02 
189.634  6.29000000e+02 
189.598  6.02000000e+02 
189.562  5.78000000e+02 
189.526  5.46000000e+02 
189.490  5.66000000e+02 
189.454  5.73000000e+02 
189.418  5.29000000e+02 
189.382  5.84000000e+02 
189.346  5.25000000e+02 
189.310  5.43000000e+02 
189.274  5.42000000e+02 
189.238  5.69000000e+02 
189.202  5.45000000e+02 
189.166  5.41000000e+02 
189.130  5.32000000e+02 
189.095  5.45000000e+02 
189.059  5.31000000e+02 
189.023  5.30000000e+02 
188.987  4.82000000e+02 
188.951  5.38000000e+02 
188.915  5.56000000e+02 
188.879  5.17000000e+02 
188.843  5.53000000e+02 
188.807  5.06000000e+02 
188.771  5.06000000e+02 
188.735  5.15000000e+02 
188.699  5.17000000e+02 
188.663  5.15000000e+02 
188.627  5.41000000e+02 
188.591  5.28000000e+02 
188.555  5.41000000e+02 
188.520  5.34000000e+02 
188.484  5.14000000e+02 
188.448  5.16000000e+02 
188.412  5.05000000e+02 
188.376  5.15000000e+02 
188.340  5.09000000e+02 
188.304  5.22000000e+02 
188.268  5.47000000e+02 
188.232  5.22000000e+02 
188.196  5.06000000e+02 
188.160  4.84000000e+02 
188.124  5.30000000e+02 
188.088  4.93000000e+02 
188.052  4.94000000e+02 
188.016  5.05000000e+02 
187.980  5.34000000e+02 
187.945  5.13000000e+02 
187.909  4.74000000e+02 
187.873  4.86000000e+02 
187.837  4.77000000e+02 
187.801  5.11000000e+02 
187.765  5.28000000e+02 
187.729  5.22000000e+02 
187.693  5.26000000e+02 
187.657  5.38000000e+02 
187.621  4.93000000e+02 
187.585  4.84000000e+02 
187.549  5.60000000e+02 
187.513  4.82000000e+02 
187.477  4.89000000e+02 
187.441  4.63000000e+02 
187.405  5.06000000e+02 
187.370  4.95000000e+02 
187.334  4.89000000e+02 
187.298  5.24000000e+02 
187.262  4.52000000e+02 
187.226  4.82000000e+02 
187.190  4.76000000e+02 
187.154  5.20000000e+02 
187.118  4.59000000e+02 
187.082  4.81000000e+02 
187.046  4.75000000e+02 
187.010  4.89000000e+02 
186.974  5.04000000e+02 
186.938  4.87000000e+02 
186.902  4.50000000e+02 
186.866  5.34000000e+02 
186.830  5.12000000e+02 
186.795  5.03000000e+02 
186.759  5.03000000e+02 
186.723  4.80000000e+02 
186.687  4.67000000e+02 
186.651  5.12000000e+02 
186.615  5.02000000e+02 
186.579  4.98000000e+02 
186.543  5.01000000e+02 
186.507  5.24000000e+02 
186.471  4.86000000e+02 
186.435  4.48000000e+02 
186.399  4.84000000e+02 
186.363  5.10000000e+02 
186.327  5.16000000e+02 
186.291  4.90000000e+02 
186.255  5.03000000e+02 
186.220  4.59000000e+02 
186.184  5.00000000e+02 
186.148  4.96000000e+02 
186.112  4.81000000e+02 
186.076  4.87000000e+02 
186.040  5.18000000e+02 
186.004  4.80000000e+02 
185.968  5.13000000e+02 
185.932  4.75000000e+02 
185.896  4.27000000e+02 
185.860  4.97000000e+02 
185.824  4.88000000e+02 
185.788  4.88000000e+02 
185.752  4.74000000e+02 
185.716  5.09000000e+02 
185.680  4.95000000e+02 
185.645  5.03000000e+02 
185.609  4.46000000e+02 
185.573  4.85000000e+02 
185.537  5.20000000e+02 
185.501  4.88000000e+02 
185.465  5.06000000e+02 
185.429  4.88000000e+02 
185.393  4.88000000e+02 
185.357  4.86000000e+02 
185.321  4.74000000e+02 
185.285  4.99000000e+02 
185.249  4.84000000e+02 
185.213  4.89000000e+02 
185.177  4.72000000e+02 
185.141  5.07000000e+02 
185.105  4.92000000e+02 
185.070  4.64000000e+02 
185.034  4.77000000e+02 
184.998  4.65000000e+02 
184.962  4.52000000e+02 
184.926  4.78000000e+02 
184.890  4.58000000e+02 
184.854  4.84000000e+02 
184.818  4.71000000e+02 
184.782  4.62000000e+02 
184.746  4.63000000e+02 
184.710  4.58000000e+02 
184.674  4.74000000e+02 
184.638  4.26000000e+02 
184.602  4.93000000e+02 
184.566  4.91000000e+02 
184.530  4.81000000e+02 
184.495  4.48000000e+02 
184.459  4.88000000e+02 
184.423  5.15000000e+02 
184.387  5.18000000e+02 
184.351  4.41000000e+02 
184.315  5.27000000e+02 
184.279  5.35000000e+02 
184.243  4.81000000e+02 
184.207  4.26000000e+02 
184.171  4.66000000e+02 
184.135  4.72000000e+02 
184.099  4.65000000e+02 
184.063  4.70000000e+02 
184.027  4.58000000e+02 
183.991  4.49000000e+02 
183.955  4.57000000e+02 
183.920  4.93000000e+02 
183.884  5.25000000e+02 
183.848  4.71000000e+02 
183.812  4.78000000e+02 
183.776  4.66000000e+02 
183.740  4.81000000e+02 
183.704  5.11000000e+02 
183.668  4.75000000e+02 
183.632  4.55000000e+02 
183.596  4.64000000e+02 
183.560  5.20000000e+02 
183.524  4.96000000e+02 
183.488  5.00000000e+02 
183.452  4.64000000e+02 
183.416  4.81000000e+02 
183.380  4.89000000e+02 
183.345  5.43000000e+02 
183.309  4.64000000e+02 
183.273  5.33000000e+02 
183.237  4.30000000e+02 
183.201  5.12000000e+02 
183.165  4.97000000e+02 
183.129  4.63000000e+02 
183.093  4.96000000e+02 
183.057  5.30000000e+02 
183.021  4.74000000e+02 
182.985  4.29000000e+02 
182.949  4.60000000e+02 
182.913  4.34000000e+02 
182.877  4.96000000e+02 
182.841  4.75000000e+02 
182.805  4.68000000e+02 
182.770  4.80000000e+02 
182.734  4.95000000e+02 
182.698  4.86000000e+02 
182.662  4.77000000e+02 
182.626  4.76000000e+02 
182.590  4.58000000e+02 
182.554  4.69000000e+02 
182.518  5.04000000e+02 
182.482  4.73000000e+02 
182.446  4.83000000e+02 
182.410  4.88000000e+02 
182.374  4.76000000e+02 
182.338  4.51000000e+02 
182.302  4.41000000e+02 
182.266  5.01000000e+02 
182.230  4.75000000e+02 
182.195  4.74000000e+02 
182.159  5.19000000e+02 
182.123  4.67000000e+02 
182.087  5.12000000e+02 
182.051  5.07000000e+02 
182.015  4.29000000e+02 
181.979  4.90000000e+02 
181.943  4.99000000e+02 
181.907  5.28000000e+02 
181.871  4.84000000e+02 
181.835  4.75000000e+02 
181.799  4.74000000e+02 
181.763  4.70000000e+02 
181.727  4.90000000e+02 
181.691  4.47000000e+02 
181.655  4.62000000e+02 
181.620  4.83000000e+02 
181.584  4.70000000e+02 
181.548  4.67000000e+02 
181.512  4.67000000e+02 
181.476  4.63000000e+02 
181.440  4.59000000e+02 
181.404  4.75000000e+02 
181.368  4.75000000e+02 
181.332  4.91000000e+02 
181.296  5.00000000e+02 
181.260  4.98000000e+02 
181.224  4.72000000e+02 
181.188  5.12000000e+02 
181.152  4.80000000e+02 
181.116  4.73000000e+02 
181.080  4.70000000e+02 
181.045  4.64000000e+02 
181.009  4.79000000e+02 
180.973  4.75000000e+02 
180.937  4.95000000e+02 
180.901  4.91000000e+02 
180.865  4.40000000e+02 
180.829  4.68000000e+02 
180.793  4.85000000e+02 
180.757  4.54000000e+02 
180.721  4.71000000e+02 
180.685  4.99000000e+02 
180.649  4.81000000e+02 
180.613  4.90000000e+02 
180.577  4.91000000e+02 
180.541  5.11000000e+02 
180.505  4.71000000e+02 
180.470  4.62000000e+02 
180.434  4.38000000e+02 
180.398  4.84000000e+02 
180.362  5.14000000e+02 
180.326  5.03000000e+02 
180.290  4.62000000e+02 
180.254  4.57000000e+02 
180.218  5.08000000e+02 
180.182  4.64000000e+02 
180.146  4.68000000e+02 
180.110  4.97000000e+02 
180.074  4.97000000e+02 
180.038  5.09000000e+02 
180.002  4.61000000e+02 
179.966  4.79000000e+02 
179.930  4.82000000e+02 
179.895  4.75000000e+02 
179.859  4.61000000e+02 
179.823  5.11000000e+02 
179.787  5.02000000e+02 
179.751  4.52000000e+02 
179.715  4.63000000e+02 
179.679  4.65000000e+02 
179.643  4.67000000e+02 
179.607  4.54000000e+02 
179.571  4.77000000e+02 
179.535  4.35000000e+02 
179.499  5.00000000e+02 
179.463  4.96000000e+02 
179.427  5.06000000e+02 
179.391  5.15000000e+02 
179.355  4.82000000e+02 
179.320  4.71000000e+02 
179.284  4.81000000e+02 
179.248  4.56000000e+02 
179.212  4.64000000e+02 
179.176  4.88000000e+02 
179.140  4.79000000e+02 
179.104  4.82000000e+02 
179.068  4.78000000e+02 
179.032  4.81000000e+02 
178.996  4.46000000e+02 
178.960  4.86000000e+02 
178.924  4.46000000e+02 
178.888  4.77000000e+02 
178.852  5.19000000e+02 
178.816  4.39000000e+02 
178.780  4.38000000e+02 
178.745  5.11000000e+02 
178.709  4.71000000e+02 
178.673  5.04000000e+02 
178.637  5.46000000e+02 
178.601  4.73000000e+02 
178.565  4.78000000e+02 
178.529  4.86000000e+02 
178.493  4.67000000e+02 
178.457  4.48000000e+02 
178.421  4.42000000e+02 
178.385  5.15000000e+02 
178.349  4.50000000e+02 
178.313  4.80000000e+02 
178.277  4.80000000e+02 
178.241  4.49000000e+02 
178.205  4.96000000e+02 
178.170  4.88000000e+02 
178.134  4.76000000e+02 
178.098  4.72000000e+02 
178.062  5.22000000e+02 
178.026  4.86000000e+02 
177.990  4.93000000e+02 
177.954  4.52000000e+02 
177.918  4.73000000e+02 
177.882  4.49000000e+02 
177.846  5.03000000e+02 
177.810  5.15000000e+02 
177.774  4.49000000e+02 
177.738  4.51000000e+02 
177.702  4.61000000e+02 
177.666  4.94000000e+02 
177.630  4.25000000e+02 
177.595  4.98000000e+02 
177.559  4.99000000e+02 
177.523  5.26000000e+02 
177.487  4.83000000e+02 
177.451  4.99000000e+02 
177.415  4.80000000e+02 
177.379  4.93000000e+02 
177.343  4.52000000e+02 
177.307  5.17000000e+02 
177.271  4.78000000e+02 
177.235  4.64000000e+02 
177.199  4.83000000e+02 
177.163  4.55000000e+02 
177.127  4.95000000e+02 
177.091  4.60000000e+02 
177.055  4.88000000e+02 
177.020  4.85000000e+02 
176.984  4.92000000e+02 
176.948  4.87000000e+02 
176.912  5.21000000e+02 
176.876  4.56000000e+02 
176.840  4.83000000e+02 
176.804  4.59000000e+02 
176.768  4.70000000e+02 
176.732  5.12000000e+02 
176.696  5.34000000e+02 
176.660  4.88000000e+02 
176.624  5.02000000e+02 
176.588  4.59000000e+02 
176.552  4.83000000e+02 
176.516  4.78000000e+02 
176.480  4.87000000e+02 
176.445  4.84000000e+02 
176.409  4.87000000e+02 
176.373  5.14000000e+02 
176.337  4.74000000e+02 
176.301  4.76000000e+02 
176.265  4.97000000e+02 
176.229  4.83000000e+02 
176.193  4.94000000e+02 
176.157  4.77000000e+02 
176.121  4.82000000e+02 
176.085  5.08000000e+02 
176.049  4.69000000e+02 
176.013  4.87000000e+02 
175.977  4.85000000e+02 
175.941  4.66000000e+02 
175.905  4.61000000e+02 
175.870  4.94000000e+02 
175.834  4.74000000e+02 
175.798  5.13000000e+02 
175.762  4.62000000e+02 
175.726  4.86000000e+02 
175.690  4.47000000e+02 
175.654  5.12000000e+02 
175.618  4.98000000e+02 
175.582  4.85000000e+02 
175.546  4.77000000e+02 
175.510  4.75000000e+02 
175.474  5.12000000e+02 
175.438  4.97000000e+02 
175.402  5.06000000e+02 
175.366  4.85000000e+02 
175.330  4.55000000e+02 
175.295  4.42000000e+02 
175.259  4.95000000e+02 
175.223  4.83000000e+02 
175.187  5.10000000e+02 
175.151  4.49000000e+02 
175.115  4.72000000e+02 
175.079  4.77000000e+02 
175.043  4.99000000e+02 
175.007  5.10000000e+02 
174.971  4.86000000e+02 
174.935  5.40000000e+02 
174.899  4.95000000e+02 
174.863  4.81000000e+02 
174.827  4.41000000e+02 
174.791  4.82000000e+02 
174.755  4.95000000e+02 
174.720  4.89000000e+02 
174.684  4.99000000e+02 
174.648  4.58000000e+02 
174.612  4.86000000e+02 
174.576  5.01000000e+02 
174.540  4.93000000e+02 
174.504  5.08000000e+02 
174.468  4.68000000e+02 
174.432  5.01000000e+02 
174.396  4.90000000e+02 
174.360  4.86000000e+02 
174.324  4.77000000e+02 
174.288  5.09000000e+02 
174.252  5.05000000e+02 
174.216  4.81000000e+02 
174.180  5.12000000e+02 
174.145  4.84000000e+02 
174.109  5.05000000e+02 
174.073  4.76000000e+02 
174.037  5.38000000e+02 
174.001  4.91000000e+02 
173.965  4.49000000e+02 
173.929  4.65000000e+02 
173.893  4.99000000e+02 
173.857  4.97000000e+02 
173.821  4.89000000e+02 
173.785  4.84000000e+02 
173.749  5.03000000e+02 
173.713  4.76000000e+02 
173.677  4.98000000e+02 
173.641  4.73000000e+02 
173.605  5.11000000e+02 
173.570  4.91000000e+02 
173.534  4.87000000e+02 
173.498  5.08000000e+02 
173.462  4.82000000e+02 
173.426  4.36000000e+02 
173.390  4.73000000e+02 
173.354  5.07000000e+02 
