EXPERIMENT FILE
Version = 2

[ Experiment Parameters ]
Experiment Description= <none> 
Number_of_Regions_in_Experiment= 1 

Original_File_name= C:\alexesca\data\Surveys\96_27_13 Si 2.xps 
Instrument= HP ESCA West
Date= 06-27-2013
Time=  14:01:32

[ Layer Parameters ]
Layer_Type= XPS

[ Region 1 Parameters ]
Region_Description = 50-200eV (3x) 1 sec dwell time
BEcenter(eV) = 125.000000
BEwidth(eV) = 75.000000
BEstep(eV) = 0.035937
Dwell_Time(sec) = 1.000000
N_o_scans = 3  
N_o_Channels = 2087  
Scan_mode = 0  (DITHERED)

[ L= 1 R= 1 ]
BEcenter= 125.000 
BEwidth= -74.966 
Excitation= 1486.600
Time_p_channel= 768.000 
Size= 2087
162.483  4.86000000e+02 
162.447  5.23000000e+02 
162.411  4.97000000e+02 
162.375  4.67000000e+02 
162.339  4.85000000e+02 
162.303  5.01000000e+02 
162.267  4.87000000e+02 
162.231  5.15000000e+02 
162.195  5.12000000e+02 
162.159  4.92000000e+02 
162.123  4.84000000e+02 
162.088  4.77000000e+02 
162.052  4.82000000e+02 
162.016  4.76000000e+02 
161.980  5.31000000e+02 
161.944  5.06000000e+02 
161.908  4.54000000e+02 
161.872  5.14000000e+02 
161.836  4.95000000e+02 
161.800  5.41000000e+02 
161.764  5.02000000e+02 
161.728  5.23000000e+02 
161.692  5.01000000e+02 
161.656  5.36000000e+02 
161.620  4.68000000e+02 
161.584  4.76000000e+02 
161.548  5.07000000e+02 
161.512  4.79000000e+02 
161.477  5.10000000e+02 
161.441  5.09000000e+02 
161.405  5.00000000e+02 
161.369  4.77000000e+02 
161.333  5.14000000e+02 
161.297  5.15000000e+02 
161.261  5.27000000e+02 
161.225  4.76000000e+02 
161.189  4.72000000e+02 
161.153  5.06000000e+02 
161.117  5.06000000e+02 
161.081  4.86000000e+02 
161.045  4.95000000e+02 
161.009  4.91000000e+02 
160.973  5.30000000e+02 
160.938  5.19000000e+02 
160.902  5.08000000e+02 
160.866  5.05000000e+02 
160.830  4.89000000e+02 
160.794  4.73000000e+02 
160.758  4.65000000e+02 
160.722  5.03000000e+02 
160.686  4.80000000e+02 
160.650  5.00000000e+02 
160.614  5.08000000e+02 
160.578  5.10000000e+02 
160.542  5.08000000e+02 
160.506  4.94000000e+02 
160.470  5.12000000e+02 
160.434  4.61000000e+02 
160.398  5.03000000e+02 
160.363  4.88000000e+02 
160.327  4.59000000e+02 
160.291  5.09000000e+02 
160.255  4.90000000e+02 
160.219  4.88000000e+02 
160.183  5.11000000e+02 
160.147  5.17000000e+02 
160.111  4.84000000e+02 
160.075  4.71000000e+02 
160.039  4.69000000e+02 
160.003  5.03000000e+02 
159.967  4.91000000e+02 
159.931  5.16000000e+02 
159.895  4.73000000e+02 
159.859  4.50000000e+02 
159.823  5.05000000e+02 
159.787  4.80000000e+02 
159.752  4.55000000e+02 
159.716  5.27000000e+02 
159.680  4.97000000e+02 
159.644  4.73000000e+02 
159.608  4.76000000e+02 
159.572  5.12000000e+02 
159.536  4.47000000e+02 
159.500  4.73000000e+02 
159.464  5.24000000e+02 
159.428  4.90000000e+02 
159.392  5.14000000e+02 
159.356  4.76000000e+02 
159.320  4.74000000e+02 
159.284  4.89000000e+02 
159.248  4.53000000e+02 
159.213  4.35000000e+02 
159.177  4.55000000e+02 
159.141  4.84000000e+02 
159.105  4.33000000e+02 
159.069  5.32000000e+02 
159.033  4.58000000e+02 
158.997  4.52000000e+02 
158.961  4.64000000e+02 
158.925  4.61000000e+02 
158.889  4.81000000e+02 
158.853  4.95000000e+02 
158.817  4.83000000e+02 
158.781  4.56000000e+02 
158.745  5.20000000e+02 
158.709  5.13000000e+02 
158.673  5.05000000e+02 
158.637  4.70000000e+02 
158.602  4.67000000e+02 
158.566  4.99000000e+02 
158.530  4.53000000e+02 
158.494  4.65000000e+02 
158.458  4.83000000e+02 
158.422  5.44000000e+02 
158.386  4.63000000e+02 
158.350  4.67000000e+02 
158.314  4.86000000e+02 
158.278  4.39000000e+02 
158.242  5.05000000e+02 
158.206  5.10000000e+02 
158.170  4.81000000e+02 
158.134  4.58000000e+02 
158.098  4.60000000e+02 
158.062  4.92000000e+02 
158.027  4.76000000e+02 
157.991  4.46000000e+02 
157.955  4.62000000e+02 
157.919  4.23000000e+02 
157.883  5.00000000e+02 
157.847  4.81000000e+02 
157.811  5.00000000e+02 
157.775  5.03000000e+02 
157.739  4.83000000e+02 
157.703  4.96000000e+02 
157.667  4.83000000e+02 
157.631  4.59000000e+02 
157.595  4.78000000e+02 
157.559  4.79000000e+02 
157.523  5.13000000e+02 
157.488  4.57000000e+02 
157.452  5.00000000e+02 
157.416  4.64000000e+02 
157.380  4.81000000e+02 
157.344  4.71000000e+02 
157.308  4.90000000e+02 
157.272  4.65000000e+02 
157.236  4.84000000e+02 
157.200  4.91000000e+02 
157.164  5.00000000e+02 
157.128  4.62000000e+02 
157.092  5.14000000e+02 
157.056  5.24000000e+02 
157.020  4.90000000e+02 
156.984  4.96000000e+02 
156.948  4.84000000e+02 
156.912  5.06000000e+02 
156.877  4.48000000e+02 
156.841  4.96000000e+02 
156.805  4.98000000e+02 
156.769  5.20000000e+02 
156.733  4.88000000e+02 
156.697  4.69000000e+02 
156.661  4.63000000e+02 
156.625  4.42000000e+02 
156.589  4.62000000e+02 
156.553  5.01000000e+02 
156.517  5.40000000e+02 
156.481  4.85000000e+02 
156.445  4.74000000e+02 
156.409  4.84000000e+02 
156.373  4.77000000e+02 
156.338  4.58000000e+02 
156.302  5.11000000e+02 
156.266  4.84000000e+02 
156.230  4.94000000e+02 
156.194  5.17000000e+02 
156.158  4.87000000e+02 
156.122  4.79000000e+02 
156.086  4.99000000e+02 
156.050  5.04000000e+02 
156.014  4.88000000e+02 
155.978  4.78000000e+02 
155.942  4.96000000e+02 
155.906  4.49000000e+02 
155.870  4.33000000e+02 
155.834  5.34000000e+02 
155.798  4.73000000e+02 
155.762  5.22000000e+02 
155.727  4.80000000e+02 
155.691  5.01000000e+02 
155.655  4.94000000e+02 
155.619  4.53000000e+02 
155.583  4.77000000e+02 
155.547  5.10000000e+02 
155.511  4.28000000e+02 
155.475  5.15000000e+02 
155.439  4.91000000e+02 
155.403  4.77000000e+02 
155.367  5.32000000e+02 
155.331  5.00000000e+02 
155.295  4.88000000e+02 
155.259  4.73000000e+02 
155.223  4.73000000e+02 
155.188  5.50000000e+02 
155.152  4.74000000e+02 
155.116  4.79000000e+02 
155.080  5.08000000e+02 
155.044  4.89000000e+02 
155.008  4.72000000e+02 
154.972  4.52000000e+02 
154.936  5.05000000e+02 
154.900  4.58000000e+02 
154.864  5.04000000e+02 
154.828  4.86000000e+02 
154.792  4.59000000e+02 
154.756  4.79000000e+02 
154.720  5.04000000e+02 
154.684  4.59000000e+02 
154.648  4.71000000e+02 
154.613  4.67000000e+02 
154.577  4.84000000e+02 
154.541  4.94000000e+02 
154.505  4.51000000e+02 
154.469  4.60000000e+02 
154.433  4.80000000e+02 
154.397  4.78000000e+02 
154.361  4.78000000e+02 
154.325  4.66000000e+02 
154.289  4.94000000e+02 
154.253  4.76000000e+02 
154.217  4.72000000e+02 
154.181  5.33000000e+02 
154.145  5.04000000e+02 
154.109  4.57000000e+02 
154.073  5.03000000e+02 
154.037  4.42000000e+02 
154.002  5.03000000e+02 
153.966  4.80000000e+02 
153.930  5.23000000e+02 
153.894  4.63000000e+02 
153.858  4.91000000e+02 
153.822  5.11000000e+02 
153.786  4.97000000e+02 
153.750  4.88000000e+02 
153.714  5.17000000e+02 
153.678  4.79000000e+02 
153.642  4.52000000e+02 
153.606  4.51000000e+02 
153.570  4.65000000e+02 
153.534  5.03000000e+02 
153.498  4.90000000e+02 
153.463  4.67000000e+02 
153.427  4.71000000e+02 
153.391  4.63000000e+02 
153.355  4.73000000e+02 
153.319  4.84000000e+02 
153.283  5.17000000e+02 
153.247  4.23000000e+02 
153.211  4.15000000e+02 
153.175  4.66000000e+02 
153.139  5.00000000e+02 
153.103  4.52000000e+02 
153.067  4.99000000e+02 
153.031  4.77000000e+02 
152.995  5.11000000e+02 
152.959  4.62000000e+02 
152.923  5.24000000e+02 
152.887  4.90000000e+02 
152.852  4.69000000e+02 
152.816  4.99000000e+02 
152.780  4.55000000e+02 
152.744  4.50000000e+02 
152.708  4.85000000e+02 
152.672  4.85000000e+02 
152.636  5.09000000e+02 
152.600  5.28000000e+02 
152.564  5.09000000e+02 
152.528  4.92000000e+02 
152.492  5.24000000e+02 
152.456  4.83000000e+02 
152.420  4.90000000e+02 
152.384  4.61000000e+02 
152.348  4.56000000e+02 
152.312  4.84000000e+02 
152.277  4.60000000e+02 
152.241  4.85000000e+02 
152.205  4.51000000e+02 
152.169  4.93000000e+02 
152.133  4.91000000e+02 
152.097  4.78000000e+02 
152.061  4.49000000e+02 
152.025  4.66000000e+02 
151.989  5.33000000e+02 
151.953  4.69000000e+02 
151.917  4.53000000e+02 
151.881  4.45000000e+02 
151.845  4.75000000e+02 
151.809  4.85000000e+02 
151.773  4.51000000e+02 
151.738  5.10000000e+02 
151.702  4.79000000e+02 
151.666  4.96000000e+02 
151.630  4.75000000e+02 
151.594  5.16000000e+02 
151.558  4.47000000e+02 
151.522  4.84000000e+02 
151.486  4.46000000e+02 
151.450  5.02000000e+02 
151.414  4.57000000e+02 
151.378  4.31000000e+02 
151.342  5.03000000e+02 
151.306  4.62000000e+02 
151.270  4.60000000e+02 
151.234  4.57000000e+02 
151.198  4.97000000e+02 
151.162  4.93000000e+02 
151.127  4.61000000e+02 
151.091  4.89000000e+02 
151.055  4.73000000e+02 
151.019  4.99000000e+02 
150.983  4.96000000e+02 
150.947  4.78000000e+02 
150.911  4.97000000e+02 
150.875  4.67000000e+02 
150.839  4.94000000e+02 
150.803  4.67000000e+02 
150.767  4.32000000e+02 
150.731  5.17000000e+02 
150.695  5.27000000e+02 
150.659  4.59000000e+02 
150.623  4.85000000e+02 
150.588  4.81000000e+02 
150.552  4.77000000e+02 
150.516  5.13000000e+02 
150.480  4.79000000e+02 
150.444  4.94000000e+02 
150.408  4.97000000e+02 
150.372  4.63000000e+02 
150.336  4.62000000e+02 
150.300  4.69000000e+02 
150.264  4.19000000e+02 
150.228  4.87000000e+02 
150.192  4.95000000e+02 
150.156  4.65000000e+02 
150.120  4.88000000e+02 
150.084  4.58000000e+02 
150.048  4.31000000e+02 
150.012  4.98000000e+02 
149.977  5.07000000e+02 
149.941  4.49000000e+02 
149.905  5.16000000e+02 
149.869  4.49000000e+02 
149.833  4.36000000e+02 
149.797  4.37000000e+02 
149.761  5.10000000e+02 
149.725  4.61000000e+02 
149.689  5.04000000e+02 
149.653  4.40000000e+02 
149.617  4.79000000e+02 
149.581  4.62000000e+02 
149.545  4.88000000e+02 
149.509  4.87000000e+02 
149.473  4.81000000e+02 
149.438  4.42000000e+02 
149.402  5.15000000e+02 
149.366  4.53000000e+02 
149.330  4.54000000e+02 
149.294  4.74000000e+02 
149.258  5.03000000e+02 
149.222  4.55000000e+02 
149.186  4.64000000e+02 
149.150  5.15000000e+02 
149.114  4.68000000e+02 
149.078  5.06000000e+02 
149.042  4.41000000e+02 
149.006  4.65000000e+02 
148.970  4.98000000e+02 
148.934  4.80000000e+02 
148.898  4.51000000e+02 
148.863  4.58000000e+02 
148.827  4.59000000e+02 
148.791  4.95000000e+02 
148.755  5.03000000e+02 
148.719  5.10000000e+02 
148.683  4.62000000e+02 
148.647  4.78000000e+02 
148.611  4.92000000e+02 
148.575  4.91000000e+02 
148.539  4.55000000e+02 
148.503  4.61000000e+02 
148.467  4.75000000e+02 
148.431  4.66000000e+02 
148.395  4.38000000e+02 
148.359  5.11000000e+02 
148.323  4.72000000e+02 
148.287  5.09000000e+02 
148.252  4.74000000e+02 
148.216  4.96000000e+02 
148.180  4.62000000e+02 
148.144  4.73000000e+02 
148.108  4.68000000e+02 
148.072  4.92000000e+02 
148.036  4.58000000e+02 
148.000  4.58000000e+02 
147.964  4.79000000e+02 
147.928  4.81000000e+02 
147.892  4.87000000e+02 
147.856  4.49000000e+02 
147.820  5.39000000e+02 
147.784  4.25000000e+02 
147.748  4.99000000e+02 
147.713  4.67000000e+02 
147.677  4.52000000e+02 
147.641  4.87000000e+02 
147.605  4.87000000e+02 
147.569  4.59000000e+02 
147.533  4.52000000e+02 
147.497  4.80000000e+02 
147.461  4.95000000e+02 
147.425  5.11000000e+02 
147.389  4.69000000e+02 
147.353  4.81000000e+02 
147.317  4.21000000e+02 
147.281  5.09000000e+02 
147.245  4.69000000e+02 
147.209  4.92000000e+02 
147.173  4.79000000e+02 
147.137  4.70000000e+02 
147.102  4.84000000e+02 
147.066  4.97000000e+02 
147.030  5.06000000e+02 
146.994  4.77000000e+02 
146.958  5.15000000e+02 
146.922  4.69000000e+02 
146.886  4.62000000e+02 
146.850  4.88000000e+02 
146.814  4.64000000e+02 
146.778  4.73000000e+02 
146.742  4.55000000e+02 
146.706  4.73000000e+02 
146.670  4.84000000e+02 
146.634  4.52000000e+02 
146.598  5.37000000e+02 
146.562  4.81000000e+02 
146.527  5.02000000e+02 
146.491  5.40000000e+02 
146.455  4.63000000e+02 
146.419  4.82000000e+02 
146.383  5.19000000e+02 
146.347  5.10000000e+02 
146.311  4.83000000e+02 
146.275  4.96000000e+02 
146.239  4.94000000e+02 
146.203  4.86000000e+02 
146.167  4.60000000e+02 
146.131  4.56000000e+02 
146.095  4.67000000e+02 
146.059  4.69000000e+02 
146.023  5.19000000e+02 
145.988  4.83000000e+02 
145.952  5.35000000e+02 
145.916  5.09000000e+02 
145.880  4.79000000e+02 
145.844  4.57000000e+02 
145.808  4.97000000e+02 
145.772  4.79000000e+02 
145.736  4.91000000e+02 
145.700  4.92000000e+02 
145.664  4.48000000e+02 
145.628  4.85000000e+02 
145.592  4.89000000e+02 
145.556  4.44000000e+02 
145.520  4.72000000e+02 
145.484  4.46000000e+02 
145.448  5.11000000e+02 
145.412  5.10000000e+02 
145.377  5.04000000e+02 
145.341  5.13000000e+02 
145.305  4.84000000e+02 
145.269  4.93000000e+02 
145.233  5.02000000e+02 
145.197  5.33000000e+02 
145.161  4.95000000e+02 
145.125  4.81000000e+02 
145.089  4.89000000e+02 
145.053  4.63000000e+02 
145.017  4.92000000e+02 
144.981  4.72000000e+02 
144.945  4.89000000e+02 
144.909  4.57000000e+02 
144.873  4.79000000e+02 
144.838  4.78000000e+02 
144.802  5.03000000e+02 
144.766  4.73000000e+02 
144.730  4.95000000e+02 
144.694  4.64000000e+02 
144.658  4.65000000e+02 
144.622  4.76000000e+02 
144.586  4.86000000e+02 
144.550  4.71000000e+02 
144.514  5.12000000e+02 
144.478  5.17000000e+02 
144.442  4.61000000e+02 
144.406  4.96000000e+02 
144.370  4.77000000e+02 
144.334  4.74000000e+02 
144.298  4.82000000e+02 
144.262  5.04000000e+02 
144.227  5.05000000e+02 
144.191  5.40000000e+02 
144.155  4.97000000e+02 
144.119  4.97000000e+02 
144.083  4.74000000e+02 
144.047  5.21000000e+02 
144.011  5.12000000e+02 
143.975  4.52000000e+02 
143.939  4.51000000e+02 
143.903  4.91000000e+02 
143.867  4.66000000e+02 
143.831  4.99000000e+02 
143.795  4.72000000e+02 
143.759  5.11000000e+02 
143.723  4.86000000e+02 
143.688  4.90000000e+02 
143.652  4.97000000e+02 
143.616  5.34000000e+02 
143.580  4.81000000e+02 
143.544  4.88000000e+02 
143.508  5.48000000e+02 
143.472  4.92000000e+02 
143.436  4.60000000e+02 
143.400  4.80000000e+02 
143.364  4.85000000e+02 
143.328  4.47000000e+02 
143.292  5.07000000e+02 
143.256  4.84000000e+02 
143.220  5.13000000e+02 
143.184  5.02000000e+02 
143.148  5.20000000e+02 
143.113  4.85000000e+02 
143.077  5.18000000e+02 
143.041  4.81000000e+02 
143.005  4.88000000e+02 
142.969  4.84000000e+02 
142.933  4.84000000e+02 
142.897  4.94000000e+02 
142.861  5.10000000e+02 
142.825  5.17000000e+02 
142.789  4.73000000e+02 
142.753  4.96000000e+02 
142.717  5.19000000e+02 
142.681  4.69000000e+02 
142.645  4.93000000e+02 
142.609  5.16000000e+02 
142.573  4.61000000e+02 
142.537  5.09000000e+02 
142.502  4.99000000e+02 
142.466  4.81000000e+02 
142.430  5.17000000e+02 
142.394  4.90000000e+02 
142.358  4.95000000e+02 
142.322  4.60000000e+02 
142.286  4.89000000e+02 
142.250  4.78000000e+02 
142.214  5.56000000e+02 
142.178  4.93000000e+02 
142.142  4.90000000e+02 
142.106  4.85000000e+02 
142.070  5.27000000e+02 
142.034  4.79000000e+02 
141.998  5.05000000e+02 
141.963  4.48000000e+02 
141.927  4.72000000e+02 
141.891  4.93000000e+02 
141.855  5.40000000e+02 
141.819  4.95000000e+02 
141.783  5.00000000e+02 
141.747  4.98000000e+02 
141.711  4.81000000e+02 
141.675  4.63000000e+02 
141.639  5.01000000e+02 
141.603  5.31000000e+02 
141.567  5.21000000e+02 
141.531  4.76000000e+02 
141.495  5.03000000e+02 
141.459  5.06000000e+02 
141.423  4.73000000e+02 
141.387  4.76000000e+02 
141.352  4.87000000e+02 
141.316  4.81000000e+02 
141.280  4.92000000e+02 
141.244  5.12000000e+02 
141.208  5.10000000e+02 
141.172  4.87000000e+02 
141.136  5.38000000e+02 
141.100  5.09000000e+02 
141.064  5.05000000e+02 
141.028  4.81000000e+02 
140.992  4.66000000e+02 
140.956  4.68000000e+02 
140.920  4.69000000e+02 
140.884  4.89000000e+02 
140.848  4.92000000e+02 
140.812  5.05000000e+02 
140.777  4.59000000e+02 
140.741  4.99000000e+02 
140.705  4.77000000e+02 
140.669  4.83000000e+02 
140.633  5.00000000e+02 
140.597  4.72000000e+02 
140.561  5.16000000e+02 
140.525  4.73000000e+02 
140.489  4.84000000e+02 
140.453  4.96000000e+02 
140.417  5.42000000e+02 
140.381  4.72000000e+02 
140.345  5.23000000e+02 
140.309  4.57000000e+02 
140.273  5.01000000e+02 
140.238  4.83000000e+02 
140.202  5.01000000e+02 
140.166  5.35000000e+02 
140.130  5.08000000e+02 
140.094  4.47000000e+02 
140.058  4.96000000e+02 
140.022  5.01000000e+02 
139.986  5.20000000e+02 
139.950  4.89000000e+02 
139.914  4.89000000e+02 
139.878  5.07000000e+02 
139.842  4.74000000e+02 
139.806  5.31000000e+02 
139.770  5.15000000e+02 
139.734  4.91000000e+02 
139.698  5.44000000e+02 
139.662  4.83000000e+02 
139.627  4.84000000e+02 
139.591  5.08000000e+02 
139.555  5.31000000e+02 
139.519  5.00000000e+02 
139.483  4.98000000e+02 
139.447  5.13000000e+02 
139.411  5.17000000e+02 
139.375  4.81000000e+02 
139.339  4.77000000e+02 
139.303  5.29000000e+02 
139.267  5.03000000e+02 
139.231  4.94000000e+02 
139.195  5.12000000e+02 
139.159  5.22000000e+02 
139.123  5.08000000e+02 
139.088  4.81000000e+02 
139.052  5.01000000e+02 
139.016  5.20000000e+02 
138.980  4.77000000e+02 
138.944  5.09000000e+02 
138.908  4.69000000e+02 
138.872  4.95000000e+02 
138.836  4.99000000e+02 
138.800  5.05000000e+02 
138.764  5.28000000e+02 
138.728  4.88000000e+02 
138.692  5.11000000e+02 
138.656  5.33000000e+02 
138.620  4.94000000e+02 
138.584  5.07000000e+02 
138.548  5.03000000e+02 
138.512  5.06000000e+02 
138.477  4.91000000e+02 
138.441  5.28000000e+02 
138.405  5.01000000e+02 
138.369  4.93000000e+02 
138.333  5.14000000e+02 
138.297  5.11000000e+02 
138.261  5.04000000e+02 
138.225  5.01000000e+02 
138.189  5.10000000e+02 
138.153  4.84000000e+02 
138.117  4.78000000e+02 
138.081  5.15000000e+02 
138.045  5.29000000e+02 
138.009  4.79000000e+02 
137.973  4.91000000e+02 
137.938  5.35000000e+02 
137.902  5.45000000e+02 
137.866  4.76000000e+02 
137.830  5.03000000e+02 
137.794  5.25000000e+02 
137.758  5.40000000e+02 
137.722  4.87000000e+02 
137.686  5.31000000e+02 
137.650  5.04000000e+02 
137.614  5.30000000e+02 
137.578  4.84000000e+02 
137.542  4.98000000e+02 
137.506  4.75000000e+02 
137.470  4.78000000e+02 
137.434  4.95000000e+02 
137.398  5.17000000e+02 
137.363  4.91000000e+02 
137.327  5.38000000e+02 
137.291  5.13000000e+02 
137.255  5.15000000e+02 
137.219  5.32000000e+02 
137.183  5.03000000e+02 
137.147  5.16000000e+02 
137.111  5.02000000e+02 
137.075  5.18000000e+02 
137.039  5.41000000e+02 
137.003  5.40000000e+02 
136.967  5.30000000e+02 
136.931  4.87000000e+02 
136.895  5.00000000e+02 
136.859  4.81000000e+02 
136.823  5.23000000e+02 
136.787  4.92000000e+02 
136.752  5.29000000e+02 
136.716  5.51000000e+02 
136.680  5.17000000e+02 
136.644  5.18000000e+02 
136.608  5.33000000e+02 
136.572  5.23000000e+02 
136.536  5.47000000e+02 
136.500  5.41000000e+02 
136.464  5.11000000e+02 
136.428  5.25000000e+02 
136.392  5.29000000e+02 
136.356  5.58000000e+02 
136.320  5.39000000e+02 
136.284  5.14000000e+02 
136.248  5.28000000e+02 
136.213  5.24000000e+02 
136.177  5.38000000e+02 
136.141  5.38000000e+02 
136.105  5.59000000e+02 
136.069  5.05000000e+02 
136.033  5.44000000e+02 
135.997  5.09000000e+02 
135.961  5.26000000e+02 
135.925  5.61000000e+02 
135.889  4.77000000e+02 
135.853  4.97000000e+02 
135.817  4.80000000e+02 
