Original_File_name= C:\AlexESCA\SOURCE\Test.xps 
Experiment done on ESCA-West on 02-15-1997 at 08:40:13. 

Experiment Description: <none> 
Number of Regions in Experiment: 1 

Region 1= hello2                                                                                               
BEinitial(eV)= 740.000000 eV 
BEfinal(eV)= 789.000000 eV 
Dwell Time(sec)= 0.500000 sec 
n_o_scans= 3  
data_acquired_FIXED_scan_mode 

[ Region= hello2                                                                                               ]
[N_o_data_points= 1358 ]
740.000             0 
740.036           300 
740.072           600 
740.108           900 
740.144          1200 
740.180          1500 
740.217          1800 
740.253          2100 
740.289          2400 
740.325          2700 
740.361          3000 
740.397          3300 
740.433          3600 
740.469          3900 
740.505          4200 
740.541          4500 
740.578          4800 
740.614          5100 
740.650          5400 
740.686          5700 
740.722          6000 
740.758          6300 
740.794          6600 
740.830          6900 
740.866          7200 
740.902          7500 
740.938          7800 
740.975          8100 
741.011          8400 
741.047          8700 
741.083          9000 
741.119          9300 
741.155          9600 
741.191          9900 
741.227         10200 
741.263         10500 
741.299         10800 
741.335         11100 
741.372         11400 
741.408         11700 
741.444         12000 
741.480         12300 
741.516         12600 
741.552         12900 
741.588         13200 
741.624         13500 
741.660         13800 
741.696         14100 
741.733         14400 
741.769         14700 
741.805         15000 
741.841         15300 
741.877         15600 
741.913         15900 
741.949         16200 
741.985         16500 
742.021         16800 
742.057         17100 
742.093         17400 
742.130         17700 
742.166         18000 
742.202         18300 
742.238         18600 
742.274         18900 
742.310         19200 
742.346         19500 
742.382         19800 
742.418         20100 
742.454         20400 
742.490         20700 
742.527         21000 
742.563         21300 
742.599         21600 
742.635         21900 
742.671         22200 
742.707         22500 
742.743         22800 
742.779         23100 
742.815         23400 
742.851         23700 
742.888         24000 
742.924         24300 
742.960         24600 
742.996         24900 
743.032         25200 
743.068         25500 
743.104         25800 
743.140         26100 
743.176         26400 
743.212         26700 
743.248         27000 
743.285         27300 
743.321         27600 
743.357         27900 
743.393         28200 
743.429         28500 
743.465         28800 
743.501         29100 
743.537         29400 
743.573         29700 
743.609         30000 
743.645         30300 
743.682         30600 
743.718         30900 
743.754         31200 
743.790         31500 
743.826         31800 
743.862         32100 
743.898         32400 
743.934         32700 
743.970         33000 
744.006         33300 
744.043         33600 
744.079         33900 
744.115         34200 
744.151         34500 
744.187         34800 
744.223         35100 
744.259         35400 
744.295         35700 
744.331         36000 
744.367         36300 
744.403         36600 
744.440         36900 
744.476         37200 
744.512         37500 
744.548         37800 
744.584         38100 
744.620         38400 
744.656         38700 
744.692         39000 
744.728         39300 
744.764         39600 
744.800         39900 
744.837         40200 
744.873         40500 
744.909         40800 
744.945         41100 
744.981         41400 
745.017         41700 
745.053         42000 
745.089         42300 
745.125         42600 
745.161         42900 
745.198         43200 
745.234         43500 
745.270         43800 
745.306         44100 
745.342         44400 
745.378         44700 
745.414         45000 
745.450         45300 
745.486         45600 
745.522         45900 
745.558         46200 
745.595         46500 
745.631         46800 
745.667         47100 
745.703         47400 
745.739         47700 
745.775         48000 
745.811         48300 
745.847         48600 
745.883         48900 
745.919         49200 
745.955         49500 
745.992         49800 
746.028         50100 
746.064         50400 
746.100         50700 
746.136         51000 
746.172         51300 
746.208         51600 
746.244         51900 
746.280         52200 
746.316         52500 
746.353         52800 
746.389         53100 
746.425         53400 
746.461         53700 
746.497         54000 
746.533         54300 
746.569         54600 
746.605         54900 
746.641         55200 
746.677         55500 
746.713         55800 
746.750         56100 
746.786         56400 
746.822         56700 
746.858         57000 
746.894         57300 
746.930         57600 
746.966         57900 
747.002         58200 
747.038         58500 
747.074         58800 
747.110         59100 
747.147         59400 
747.183         59700 
747.219         60000 
747.255         60300 
747.291         60600 
747.327         60900 
747.363         61200 
747.399         61500 
747.435         61800 
747.471         62100 
747.508         62400 
747.544         62700 
747.580         63000 
747.616         63300 
747.652         63600 
747.688         63900 
747.724         64200 
747.760         64500 
747.796         64800 
747.832         65100 
747.868         65400 
747.905         65700 
747.941         66000 
747.977         66300 
748.013         66600 
748.049         66900 
748.085         67200 
748.121         67500 
748.157         67800 
748.193         68100 
748.229         68400 
748.265         68700 
748.302         69000 
748.338         69300 
748.374         69600 
748.410         69900 
748.446         70200 
748.482         70500 
748.518         70800 
748.554         71100 
748.590         71400 
748.626         71700 
748.663         72000 
748.699         72300 
748.735         72600 
748.771         72900 
748.807         73200 
748.843         73500 
748.879         73800 
748.915         74100 
748.951         74400 
748.987         74700 
749.023         75000 
749.060         75300 
749.096         75600 
749.132         75900 
749.168         76200 
749.204         76500 
749.240             0 
749.276           300 
749.312           600 
749.348           900 
749.384          1200 
749.420          1500 
749.457          1800 
749.493          2100 
749.529          2400 
749.565          2700 
749.601          3000 
749.637          3300 
749.673          3600 
749.709          3900 
749.745          4200 
749.781          4500 
749.818          4800 
749.854          5100 
749.890          5400 
749.926          5700 
749.962          6000 
749.998          6300 
750.034          6600 
750.070          6900 
750.106          7200 
750.142          7500 
750.178          7800 
750.215          8100 
750.251          8400 
750.287          8700 
750.323          9000 
750.359          9300 
750.395          9600 
750.431          9900 
750.467         10200 
750.503         10500 
750.539         10800 
750.575         11100 
750.612         11400 
750.648         11700 
750.684         12000 
750.720         12300 
750.756         12600 
750.792         12900 
750.828         13200 
750.864         13500 
750.900         13800 
750.936         14100 
750.973         14400 
751.009         14700 
751.045         15000 
751.081         15300 
751.117         15600 
751.153         15900 
751.189         16200 
751.225         16500 
751.261         16800 
751.297         17100 
751.333         17400 
751.370         17700 
751.406         18000 
751.442         18300 
751.478         18600 
751.514         18900 
751.550         19200 
751.586         19500 
751.622         19800 
751.658         20100 
751.694         20400 
751.730         20700 
751.767         21000 
751.803         21300 
751.839         21600 
751.875         21900 
751.911         22200 
751.947         22500 
751.983         22800 
752.019         23100 
752.055         23400 
752.091         23700 
752.128         24000 
752.164         24300 
752.200         24600 
752.236         24900 
752.272         25200 
752.308         25500 
752.344         25800 
752.380         26100 
752.416         26400 
752.452         26700 
752.488         27000 
752.525         27300 
752.561         27600 
752.597         27900 
752.633         28200 
752.669         28500 
752.705         28800 
752.741         29100 
752.777         29400 
752.813         29700 
752.849         30000 
752.885         30300 
752.922         30600 
752.958         30900 
752.994         31200 
753.030         31500 
753.066         31800 
753.102         32100 
753.138         32400 
753.174         32700 
753.210         33000 
753.246         33300 
753.283         33600 
753.319         33900 
753.355         34200 
753.391         34500 
753.427         34800 
753.463         35100 
753.499         35400 
753.535         35700 
753.571         36000 
753.607         36300 
753.643         36600 
753.680         36900 
753.716         37200 
753.752         37500 
753.788         37800 
753.824         38100 
753.860         38400 
753.896         38700 
753.932         39000 
753.968         39300 
754.004         39600 
754.040         39900 
754.077         40200 
754.113         40500 
754.149         40800 
754.185         41100 
754.221         41400 
754.257         41700 
754.293         42000 
754.329         42300 
754.365         42600 
754.401         42900 
754.438         43200 
754.474         43500 
754.510         43800 
754.546         44100 
754.582         44400 
754.618         44700 
754.654         45000 
754.690         45300 
754.726         45600 
754.762         45900 
754.798         46200 
754.835         46500 
754.871         46800 
754.907         47100 
754.943         47400 
754.979         47700 
755.015         48000 
755.051         48300 
755.087         48600 
755.123         48900 
755.159         49200 
755.195         49500 
755.232         49800 
755.268         50100 
755.304         50400 
755.340         50700 
755.376         51000 
755.412         51300 
755.448         51600 
755.484         51900 
755.520         52200 
755.556         52500 
755.593         52800 
755.629         53100 
755.665         53400 
755.701         53700 
755.737         54000 
755.773         54300 
755.809         54600 
755.845         54900 
755.881         55200 
755.917         55500 
755.953         55800 
755.990         56100 
756.026         56400 
756.062         56700 
756.098         57000 
756.134         57300 
756.170         57600 
756.206         57900 
756.242         58200 
756.278         58500 
756.314         58800 
756.350         59100 
756.387         59400 
756.423         59700 
756.459         60000 
756.495         60300 
756.531         60600 
756.567         60900 
756.603         61200 
756.639         61500 
756.675         61800 
756.711         62100 
756.748         62400 
756.784         62700 
756.820         63000 
756.856         63300 
756.892         63600 
756.928         63900 
756.964         64200 
757.000         64500 
757.036         64800 
757.072         65100 
757.108         65400 
757.145         65700 
757.181         66000 
757.217         66300 
757.253         66600 
757.289         66900 
757.325         67200 
757.361         67500 
757.397         67800 
757.433         68100 
757.469         68400 
757.505         68700 
757.542         69000 
757.578         69300 
757.614         69600 
757.650         69900 
757.686         70200 
757.722         70500 
757.758         70800 
757.794         71100 
757.830         71400 
757.866         71700 
757.903         72000 
757.939         72300 
757.975         72600 
758.011         72900 
758.047         73200 
758.083         73500 
758.119         73800 
758.155         74100 
758.191         74400 
758.227         74700 
758.263         75000 
758.300         75300 
758.336         75600 
758.372         75900 
758.408         76200 
758.444         76500 
758.480             0 
758.516           300 
758.552           600 
758.588           900 
758.624          1200 
758.660          1500 
758.697          1800 
758.733          2100 
758.769          2400 
758.805          2700 
758.841          3000 
758.877          3300 
758.913          3600 
758.949          3900 
758.985          4200 
759.021          4500 
759.058          4800 
759.094          5100 
759.130          5400 
759.166          5700 
759.202          6000 
759.238          6300 
759.274          6600 
759.310          6900 
759.346          7200 
759.382          7500 
759.418          7800 
759.455          8100 
759.491          8400 
759.527          8700 
759.563          9000 
759.599          9300 
759.635          9600 
759.671          9900 
759.707         10200 
759.743         10500 
759.779         10800 
759.815         11100 
759.852         11400 
759.888         11700 
759.924         12000 
759.960         12300 
759.996         12600 
760.032         12900 
760.068         13200 
760.104         13500 
760.140         13800 
760.176         14100 
760.213         14400 
760.249         14700 
760.285         15000 
760.321         15300 
760.357         15600 
760.393         15900 
760.429         16200 
760.465         16500 
760.501         16800 
760.537         17100 
760.573         17400 
760.610         17700 
760.646         18000 
760.682         18300 
760.718         18600 
760.754         18900 
760.790         19200 
760.826         19500 
760.862         19800 
760.898         20100 
760.934         20400 
760.970         20700 
761.007         21000 
761.043         21300 
761.079         21600 
761.115         21900 
761.151         22200 
761.187         22500 
761.223         22800 
761.259         23100 
761.295         23400 
761.331         23700 
761.368         24000 
761.404         24300 
761.440         24600 
761.476         24900 
761.512         25200 
761.548         25500 
761.584         25800 
761.620         26100 
761.656         26400 
761.692         26700 
761.728         27000 
761.765         27300 
761.801         27600 
761.837         27900 
761.873         28200 
761.909         28500 
761.945         28800 
761.981         29100 
762.017         29400 
762.053         29700 
762.089         30000 
762.125         30300 
762.162         30600 
762.198         30900 
762.234         31200 
762.270         31500 
762.306         31800 
762.342         32100 
762.378         32400 
762.414         32700 
762.450         33000 
762.486         33300 
762.523         33600 
762.559         33900 
762.595         34200 
762.631         34500 
762.667         34800 
762.703         35100 
762.739         35400 
762.775         35700 
762.811         36000 
762.847         36300 
762.883         36600 
762.920         36900 
762.956         37200 
762.992         37500 
763.028         37800 
763.064         38100 
763.100         38400 
763.136         38700 
763.172         39000 
763.208         39300 
763.244         39600 
763.280         39900 
763.317         40200 
763.353         40500 
763.389         40800 
763.425         41100 
763.461         41400 
763.497         41700 
763.533         42000 
763.569         42300 
763.605         42600 
763.641         42900 
763.678         43200 
763.714         43500 
763.750         43800 
763.786         44100 
763.822         44400 
763.858         44700 
763.894         45000 
763.930         45300 
763.966         45600 
764.002         45900 
764.038         46200 
764.075         46500 
764.111         46800 
764.147         47100 
764.183         47400 
764.219         47700 
764.255         48000 
764.291         48300 
764.327         48600 
764.363         48900 
764.399         49200 
764.435         49500 
764.472         49800 
764.508         50100 
764.544         50400 
764.580         50700 
764.616         51000 
764.652         51300 
764.688         51600 
764.724         51900 
764.760         52200 
764.796         52500 
764.833         52800 
764.869         53100 
764.905         53400 
764.941         53700 
764.977         54000 
765.013         54300 
765.049         54600 
765.085         54900 
765.121         55200 
765.157         55500 
765.193         55800 
765.230         56100 
765.266         56400 
765.302         56700 
765.338         57000 
765.374         57300 
765.410         57600 
765.446         57900 
765.482         58200 
765.518         58500 
765.554         58800 
765.590         59100 
765.627         59400 
765.663         59700 
765.699         60000 
765.735         60300 
765.771         60600 
765.807         60900 
765.843         61200 
765.879         61500 
765.915         61800 
765.951         62100 
765.988         62400 
766.024         62700 
766.060         63000 
766.096         63300 
766.132         63600 
766.168         63900 
766.204         64200 
766.240         64500 
766.276         64800 
766.312         65100 
766.348         65400 
766.385         65700 
766.421         66000 
766.457         66300 
766.493         66600 
766.529         66900 
766.565         67200 
766.601         67500 
766.637         67800 
766.673         68100 
766.709         68400 
766.745         68700 
766.782         69000 
766.818         69300 
766.854         69600 
766.890         69900 
766.926         70200 
766.962         70500 
766.998         70800 
767.034         71100 
767.070         71400 
767.106         71700 
767.143         72000 
767.179         72300 
767.215         72600 
767.251         72900 
767.287         73200 
767.323         73500 
767.359         73800 
767.395         74100 
767.431         74400 
767.467         74700 
767.503         75000 
767.540         75300 
767.576         75600 
767.612         75900 
767.648         76200 
767.684         76500 
767.720             0 
767.756           300 
767.792           600 
767.828           900 
767.864          1200 
767.900          1500 
767.937          1800 
767.973          2100 
768.009          2400 
768.045          2700 
768.081          3000 
768.117          3300 
768.153          3600 
768.189          3900 
768.225          4200 
768.261          4500 
768.298          4800 
768.334          5100 
768.370          5400 
768.406          5700 
768.442          6000 
768.478          6300 
768.514          6600 
768.550          6900 
768.586          7200 
768.622          7500 
768.658          7800 
768.695          8100 
768.731          8400 
768.767          8700 
768.803          9000 
768.839          9300 
768.875          9600 
768.911          9900 
768.947         10200 
768.983         10500 
769.019         10800 
769.055         11100 
769.092         11400 
769.128         11700 
769.164         12000 
