EXPERIMENT FILE
Version = 2

[ Experiment Parameters ]
Experiment Description= Seven 
Number_of_Regions_in_Experiment= 10 

Original_File_name= C:\alexesca\data\Noise]\Attempt1_70Cu111014.xps 
Instrument= HP ESCA West
Date= 11-13-2014
Time=  16:58:59

[ Layer Parameters ]
Layer_Type= XPS

[ Region 1 Parameters ]
Region_Description = Fixed552eV                         
BEcenter(eV) = 552.000000
BEwidth(eV) = 9.200000
BEstep(eV) = 0.035938
Dwell_Time(sec) = 1.000000
N_o_scans = 1000  
N_o_Channels = 256  
Scan_mode = 1  (FIXED)

[ Region 2 Parameters ]
Region_Description = Fixed552eV                         
BEcenter(eV) = 552.000000
BEwidth(eV) = 9.200000
BEstep(eV) = 0.035938
Dwell_Time(sec) = 1.000000
N_o_scans = 1000  
N_o_Channels = 256  
Scan_mode = 1  (FIXED)

[ Region 3 Parameters ]
Region_Description = Fixed552eV                         
BEcenter(eV) = 552.000000
BEwidth(eV) = 9.200000
BEstep(eV) = 0.035938
Dwell_Time(sec) = 1.000000
N_o_scans = 1000  
N_o_Channels = 256  
Scan_mode = 1  (FIXED)

[ Region 4 Parameters ]
Region_Description = Fixed552eV                         
BEcenter(eV) = 552.000000
BEwidth(eV) = 9.200000
BEstep(eV) = 0.035938
Dwell_Time(sec) = 1.000000
N_o_scans = 1000  
N_o_Channels = 256  
Scan_mode = 1  (FIXED)

[ Region 5 Parameters ]
Region_Description = Fixed552eV                         
BEcenter(eV) = 552.000000
BEwidth(eV) = 9.200000
BEstep(eV) = 0.035938
Dwell_Time(sec) = 1.000000
N_o_scans = 1000  
N_o_Channels = 256  
Scan_mode = 1  (FIXED)

[ Region 6 Parameters ]
Region_Description = Fixed552eV                         
BEcenter(eV) = 552.000000
BEwidth(eV) = 9.200000
BEstep(eV) = 0.035938
Dwell_Time(sec) = 1.000000
N_o_scans = 1000  
N_o_Channels = 256  
Scan_mode = 1  (FIXED)

[ Region 7 Parameters ]
Region_Description = Fixed552eV                         
BEcenter(eV) = 552.000000
BEwidth(eV) = 9.200000
BEstep(eV) = 0.035938
Dwell_Time(sec) = 1.000000
N_o_scans = 1000  
N_o_Channels = 256  
Scan_mode = 1  (FIXED)

[ Region 8 Parameters ]
Region_Description = Fixed552eV                         
BEcenter(eV) = 552.000000
BEwidth(eV) = 9.200000
BEstep(eV) = 0.035938
Dwell_Time(sec) = 1.000000
N_o_scans = 1000  
N_o_Channels = 256  
Scan_mode = 1  (FIXED)

[ Region 9 Parameters ]
Region_Description = Fixed552eV                         
BEcenter(eV) = 552.000000
BEwidth(eV) = 9.200000
BEstep(eV) = 0.035938
Dwell_Time(sec) = 1.000000
N_o_scans = 1000  
N_o_Channels = 256  
Scan_mode = 1  (FIXED)

[ Region 10 Parameters ]
Region_Description = Fixed552eV                         
BEcenter(eV) = 552.000000
BEwidth(eV) = 9.200000
BEstep(eV) = 0.035938
Dwell_Time(sec) = 1.000000
N_o_scans = 1000  
N_o_Channels = 256  
Scan_mode = 1  (FIXED)

[ L= 1 R= 1 ]
BEcenter= 552.000 
BEwidth= -9.200  
Excitation= 1486.600
Time_p_channel= 1000.000
Size= 256
556.600  1.71800000e+03 
556.564  1.68800000e+03 
556.528  1.76100000e+03 
556.492  1.61200000e+03 
556.456  1.69900000e+03 
556.420  1.74200000e+03 
556.384  1.70000000e+03 
556.347  1.81200000e+03 
556.311  1.77600000e+03 
556.275  1.72200000e+03 
556.239  1.73800000e+03 
556.203  1.88700000e+03 
556.167  1.70400000e+03 
556.131  1.77800000e+03 
556.095  1.80400000e+03 
556.059  1.74600000e+03 
556.023  1.80700000e+03 
555.987  1.86500000e+03 
555.951  1.78400000e+03 
555.915  1.83800000e+03 
555.878  1.78900000e+03 
555.842  1.75000000e+03 
555.806  1.89700000e+03 
555.770  1.79700000e+03 
555.734  1.82400000e+03 
555.698  1.85400000e+03 
555.662  1.75200000e+03 
555.626  1.84900000e+03 
555.590  1.83600000e+03 
555.554  1.87400000e+03 
555.518  1.89900000e+03 
555.482  1.94900000e+03 
555.445  1.85700000e+03 
555.409  1.92400000e+03 
555.373  1.83700000e+03 
555.337  1.91000000e+03 
555.301  1.97100000e+03 
555.265  1.91900000e+03 
555.229  1.87800000e+03 
555.193  1.91300000e+03 
555.157  1.90600000e+03 
555.121  1.83400000e+03 
555.085  1.94900000e+03 
555.049  1.87000000e+03 
555.013  1.87000000e+03 
554.976  1.98600000e+03 
554.940  1.89700000e+03 
554.904  1.95900000e+03 
554.868  1.92300000e+03 
554.832  1.90500000e+03 
554.796  1.92800000e+03 
554.760  2.04000000e+03 
554.724  2.01500000e+03 
554.688  2.00000000e+03 
554.652  1.97600000e+03 
554.616  2.03900000e+03 
554.580  1.95100000e+03 
554.544  2.04100000e+03 
554.507  2.00600000e+03 
554.471  1.96200000e+03 
554.435  1.90900000e+03 
554.399  2.03200000e+03 
554.363  1.99600000e+03 
554.327  1.92800000e+03 
554.291  1.88400000e+03 
554.255  1.93800000e+03 
554.219  2.01300000e+03 
554.183  2.03200000e+03 
554.147  2.02800000e+03 
554.111  2.14600000e+03 
554.075  2.01500000e+03 
554.038  2.08700000e+03 
554.002  2.03700000e+03 
553.966  2.02800000e+03 
553.930  2.00000000e+03 
553.894  2.10900000e+03 
553.858  2.04500000e+03 
553.822  2.03500000e+03 
553.786  2.01500000e+03 
553.750  2.18500000e+03 
553.714  2.12000000e+03 
553.678  2.16000000e+03 
553.642  2.09700000e+03 
553.605  2.04800000e+03 
553.569  2.14400000e+03 
553.533  2.17200000e+03 
553.497  2.08300000e+03 
553.461  2.15500000e+03 
553.425  2.14700000e+03 
553.389  2.10800000e+03 
553.353  2.11300000e+03 
553.317  1.97600000e+03 
553.281  2.04100000e+03 
553.245  2.11600000e+03 
553.209  2.13400000e+03 
553.173  2.04500000e+03 
553.136  2.09400000e+03 
553.100  1.97000000e+03 
553.064  2.12800000e+03 
553.028  1.97600000e+03 
552.992  2.10300000e+03 
552.956  2.07600000e+03 
552.920  1.96900000e+03 
552.884  2.03900000e+03 
552.848  2.02200000e+03 
552.812  2.06900000e+03 
552.776  2.04600000e+03 
552.740  2.06100000e+03 
552.704  1.92800000e+03 
552.667  2.02200000e+03 
552.631  1.99900000e+03 
552.595  2.00100000e+03 
552.559  1.97600000e+03 
552.523  1.90500000e+03 
552.487  1.97400000e+03 
552.451  1.95000000e+03 
552.415  1.92100000e+03 
552.379  1.91800000e+03 
552.343  1.97300000e+03 
552.307  1.90200000e+03 
552.271  1.95700000e+03 
552.235  1.93300000e+03 
552.198  1.92000000e+03 
552.162  1.94500000e+03 
552.126  1.93900000e+03 
552.090  1.94100000e+03 
552.054  1.86600000e+03 
552.018  1.92700000e+03 
551.982  1.87500000e+03 
551.946  1.86400000e+03 
551.910  1.91700000e+03 
551.874  1.85200000e+03 
551.838  1.81900000e+03 
551.802  1.83600000e+03 
551.765  1.79400000e+03 
551.729  1.78500000e+03 
551.693  1.78800000e+03 
551.657  1.82700000e+03 
551.621  1.83300000e+03 
551.585  1.83500000e+03 
551.549  1.87300000e+03 
551.513  1.87500000e+03 
551.477  1.75500000e+03 
551.441  1.77500000e+03 
551.405  1.87500000e+03 
551.369  1.79700000e+03 
551.333  1.82200000e+03 
551.296  1.78900000e+03 
551.260  1.77100000e+03 
551.224  1.76800000e+03 
551.188  1.78800000e+03 
551.152  1.68900000e+03 
551.116  1.80400000e+03 
551.080  1.73000000e+03 
551.044  1.72700000e+03 
551.008  1.70400000e+03 
550.972  1.76000000e+03 
550.936  1.71800000e+03 
550.900  1.70500000e+03 
550.864  1.72200000e+03 
550.827  1.67000000e+03 
550.791  1.66300000e+03 
550.755  1.63300000e+03 
550.719  1.70200000e+03 
550.683  1.74300000e+03 
550.647  1.72000000e+03 
550.611  1.69800000e+03 
550.575  1.60900000e+03 
550.539  1.64200000e+03 
550.503  1.60700000e+03 
550.467  1.65400000e+03 
550.431  1.65200000e+03 
550.395  1.60200000e+03 
550.358  1.61900000e+03 
550.322  1.60800000e+03 
550.286  1.71300000e+03 
550.250  1.62300000e+03 
550.214  1.69700000e+03 
550.178  1.57800000e+03 
550.142  1.72900000e+03 
550.106  1.67700000e+03 
550.070  1.65800000e+03 
550.034  1.62200000e+03 
549.998  1.66200000e+03 
549.962  1.57400000e+03 
549.925  1.66100000e+03 
549.889  1.68100000e+03 
549.853  1.64300000e+03 
549.817  1.67400000e+03 
549.781  1.62000000e+03 
549.745  1.56900000e+03 
549.709  1.59600000e+03 
549.673  1.64500000e+03 
549.637  1.60000000e+03 
549.601  1.54800000e+03 
549.565  1.51200000e+03 
549.529  1.56100000e+03 
549.493  1.55300000e+03 
549.456  1.56100000e+03 
549.420  1.54200000e+03 
549.384  1.50500000e+03 
549.348  1.48600000e+03 
549.312  1.46900000e+03 
549.276  1.50400000e+03 
549.240  1.49300000e+03 
549.204  1.50000000e+03 
549.168  1.50900000e+03 
549.132  1.56800000e+03 
549.096  1.44700000e+03 
549.060  1.46200000e+03 
549.024  1.45700000e+03 
548.987  1.37400000e+03 
548.951  1.43100000e+03 
548.915  1.39300000e+03 
548.879  1.42400000e+03 
548.843  1.36400000e+03 
548.807  1.45100000e+03 
548.771  1.37600000e+03 
548.735  1.41400000e+03 
548.699  1.36100000e+03 
548.663  1.35700000e+03 
548.627  1.34000000e+03 
548.591  1.26500000e+03 
548.555  1.34100000e+03 
548.518  1.34900000e+03 
548.482  1.27000000e+03 
548.446  1.30100000e+03 
548.410  1.23900000e+03 
548.374  1.28700000e+03 
548.338  1.31600000e+03 
548.302  1.33100000e+03 
548.266  1.31000000e+03 
548.230  1.29100000e+03 
548.194  1.27500000e+03 
548.158  1.27200000e+03 
548.122  1.30900000e+03 
548.085  1.33000000e+03 
548.049  1.25500000e+03 
548.013  1.25200000e+03 
547.977  1.29700000e+03 
547.941  1.27900000e+03 
547.905  1.23800000e+03 
547.869  1.27600000e+03 
547.833  1.11700000e+03 
547.797  1.28100000e+03 
547.761  1.05300000e+03 
547.725  9.94000000e+02 
547.689  1.02700000e+03 
547.653  8.77000000e+02 
547.616  9.72000000e+02 
547.580  9.30000000e+02 
547.544  6.88000000e+02 
547.508  6.63000000e+02 
547.472  3.49000000e+02 
547.436  0.00000000e+00 
547.400  0.00000000e+00 

[ L= 1 R= 2 ]
BEcenter= 552.000 
BEwidth= -9.200  
Excitation= 1486.600
Time_p_channel= 1000.000
Size= 256
556.600  1.63200000e+03 
556.564  1.66800000e+03 
556.528  1.66600000e+03 
556.492  1.70500000e+03 
556.456  1.70100000e+03 
556.420  1.80600000e+03 
556.384  1.76300000e+03 
556.347  1.77700000e+03 
556.311  1.82000000e+03 
556.275  1.77600000e+03 
556.239  1.81500000e+03 
556.203  1.78100000e+03 
556.167  1.78400000e+03 
556.131  1.71400000e+03 
556.095  1.77900000e+03 
556.059  1.83600000e+03 
556.023  1.78900000e+03 
555.987  1.76200000e+03 
555.951  1.79700000e+03 
555.915  1.77100000e+03 
555.878  1.74100000e+03 
555.842  1.81700000e+03 
555.806  1.80000000e+03 
555.770  1.77700000e+03 
555.734  1.89400000e+03 
555.698  1.81100000e+03 
555.662  1.77700000e+03 
555.626  1.80700000e+03 
555.590  1.87600000e+03 
555.554  1.90000000e+03 
555.518  1.80300000e+03 
555.482  1.83100000e+03 
555.445  1.83600000e+03 
555.409  1.85100000e+03 
555.373  1.91400000e+03 
555.337  1.87900000e+03 
555.301  1.84900000e+03 
555.265  1.84800000e+03 
555.229  1.91000000e+03 
555.193  1.90800000e+03 
555.157  1.97700000e+03 
555.121  1.90300000e+03 
555.085  1.90300000e+03 
555.049  1.88400000e+03 
555.013  1.96800000e+03 
554.976  1.96500000e+03 
554.940  1.91400000e+03 
554.904  1.92600000e+03 
554.868  1.99500000e+03 
554.832  1.99900000e+03 
554.796  1.97000000e+03 
554.760  1.95900000e+03 
554.724  2.02400000e+03 
554.688  1.95000000e+03 
554.652  1.98900000e+03 
554.616  2.02300000e+03 
554.580  2.13600000e+03 
554.544  2.03000000e+03 
554.507  2.00300000e+03 
554.471  1.90400000e+03 
554.435  2.05100000e+03 
554.399  2.07500000e+03 
554.363  1.92700000e+03 
554.327  2.05800000e+03 
554.291  1.93700000e+03 
554.255  1.97800000e+03 
554.219  1.99800000e+03 
554.183  1.95600000e+03 
554.147  1.97100000e+03 
554.111  2.04000000e+03 
554.075  2.02100000e+03 
554.038  2.09600000e+03 
554.002  2.05700000e+03 
553.966  2.08200000e+03 
553.930  2.18000000e+03 
553.894  2.05700000e+03 
553.858  2.15400000e+03 
553.822  2.05400000e+03 
553.786  2.00100000e+03 
553.750  2.16200000e+03 
553.714  2.09700000e+03 
553.678  2.06100000e+03 
553.642  2.16600000e+03 
553.605  2.11400000e+03 
553.569  2.11600000e+03 
553.533  2.07000000e+03 
553.497  2.10600000e+03 
553.461  2.11400000e+03 
553.425  2.09800000e+03 
553.389  2.09500000e+03 
553.353  2.09500000e+03 
553.317  2.07300000e+03 
553.281  2.04400000e+03 
553.245  2.04600000e+03 
553.209  2.07400000e+03 
553.173  2.09400000e+03 
553.136  1.99200000e+03 
553.100  2.08000000e+03 
553.064  2.02500000e+03 
553.028  2.09200000e+03 
552.992  1.96600000e+03 
552.956  2.05800000e+03 
552.920  2.04000000e+03 
552.884  2.05500000e+03 
552.848  2.05300000e+03 
552.812  2.10600000e+03 
552.776  1.99200000e+03 
552.740  2.05100000e+03 
552.704  1.93100000e+03 
552.667  2.00800000e+03 
552.631  1.93800000e+03 
552.595  1.92200000e+03 
552.559  1.97700000e+03 
552.523  1.98400000e+03 
552.487  1.95000000e+03 
552.451  1.97400000e+03 
552.415  1.90800000e+03 
552.379  1.86900000e+03 
552.343  1.95800000e+03 
552.307  1.95300000e+03 
552.271  1.98500000e+03 
552.235  1.99600000e+03 
552.198  1.90100000e+03 
552.162  1.92100000e+03 
552.126  1.99000000e+03 
552.090  1.93700000e+03 
552.054  1.90300000e+03 
552.018  1.95700000e+03 
551.982  1.90500000e+03 
551.946  1.90400000e+03 
551.910  1.93500000e+03 
551.874  1.86400000e+03 
551.838  1.86900000e+03 
551.802  1.78300000e+03 
551.765  1.81500000e+03 
551.729  1.80600000e+03 
551.693  1.91300000e+03 
551.657  1.90900000e+03 
551.621  1.85200000e+03 
551.585  1.79800000e+03 
551.549  1.80100000e+03 
551.513  1.79700000e+03 
551.477  1.85600000e+03 
551.441  1.83500000e+03 
551.405  1.85700000e+03 
551.369  1.86400000e+03 
551.333  1.74700000e+03 
551.296  1.82700000e+03 
551.260  1.74000000e+03 
551.224  1.73900000e+03 
551.188  1.76500000e+03 
551.152  1.79700000e+03 
551.116  1.64100000e+03 
551.080  1.78800000e+03 
551.044  1.73100000e+03 
551.008  1.80200000e+03 
550.972  1.79800000e+03 
550.936  1.73300000e+03 
550.900  1.69000000e+03 
550.864  1.72200000e+03 
550.827  1.66400000e+03 
550.791  1.70200000e+03 
550.755  1.73400000e+03 
550.719  1.71400000e+03 
550.683  1.64300000e+03 
550.647  1.73800000e+03 
550.611  1.73500000e+03 
550.575  1.64300000e+03 
550.539  1.63500000e+03 
550.503  1.63500000e+03 
550.467  1.69800000e+03 
550.431  1.59900000e+03 
550.395  1.63800000e+03 
550.358  1.66000000e+03 
550.322  1.65500000e+03 
550.286  1.63200000e+03 
550.250  1.66600000e+03 
550.214  1.63400000e+03 
550.178  1.69500000e+03 
550.142  1.64600000e+03 
550.106  1.69900000e+03 
550.070  1.68400000e+03 
550.034  1.74400000e+03 
549.998  1.71400000e+03 
549.962  1.61500000e+03 
549.925  1.64400000e+03 
549.889  1.65700000e+03 
549.853  1.66900000e+03 
549.817  1.62400000e+03 
549.781  1.61600000e+03 
549.745  1.63200000e+03 
549.709  1.65400000e+03 
549.673  1.55300000e+03 
549.637  1.55300000e+03 
549.601  1.51100000e+03 
549.565  1.59700000e+03 
549.529  1.53000000e+03 
549.493  1.51800000e+03 
549.456  1.48800000e+03 
549.420  1.57600000e+03 
549.384  1.51900000e+03 
549.348  1.44900000e+03 
549.312  1.43600000e+03 
549.276  1.44000000e+03 
549.240  1.52700000e+03 
549.204  1.49200000e+03 
549.168  1.39300000e+03 
549.132  1.43700000e+03 
549.096  1.48700000e+03 
549.060  1.46500000e+03 
549.024  1.44300000e+03 
548.987  1.51600000e+03 
548.951  1.45200000e+03 
548.915  1.50300000e+03 
548.879  1.44400000e+03 
548.843  1.47400000e+03 
548.807  1.47900000e+03 
548.771  1.42700000e+03 
548.735  1.42300000e+03 
548.699  1.33500000e+03 
548.663  1.32200000e+03 
548.627  1.35900000e+03 
548.591  1.29800000e+03 
548.555  1.27000000e+03 
548.518  1.36700000e+03 
548.482  1.28000000e+03 
548.446  1.29400000e+03 
548.410  1.33500000e+03 
548.374  1.27500000e+03 
548.338  1.33100000e+03 
548.302  1.29700000e+03 
548.266  1.30500000e+03 
548.230  1.32000000e+03 
548.194  1.27500000e+03 
548.158  1.28500000e+03 
548.122  1.30000000e+03 
548.085  1.33200000e+03 
548.049  1.27300000e+03 
548.013  1.38200000e+03 
547.977  1.18300000e+03 
547.941  1.26000000e+03 
547.905  1.24700000e+03 
547.869  1.21300000e+03 
547.833  1.21600000e+03 
547.797  1.27100000e+03 
547.761  9.84000000e+02 
547.725  1.03300000e+03 
547.689  1.06300000e+03 
547.653  8.75000000e+02 
547.616  9.51000000e+02 
547.580  9.63000000e+02 
547.544  6.96000000e+02 
547.508  6.71000000e+02 
547.472  3.62000000e+02 
547.436  0.00000000e+00 
547.400  0.00000000e+00 

[ L= 1 R= 3 ]
BEcenter= 552.000 
BEwidth= -9.200  
Excitation= 1486.600
Time_p_channel= 1000.000
Size= 256
556.600  1.64800000e+03 
556.564  1.78400000e+03 
556.528  1.71500000e+03 
556.492  1.68900000e+03 
556.456  1.73900000e+03 
556.420  1.85300000e+03 
556.384  1.63300000e+03 
556.347  1.80000000e+03 
556.311  1.78100000e+03 
556.275  1.75000000e+03 
556.239  1.78300000e+03 
556.203  1.80300000e+03 
556.167  1.74400000e+03 
556.131  1.73400000e+03 
556.095  1.74500000e+03 
556.059  1.86100000e+03 
556.023  1.76700000e+03 
555.987  1.81700000e+03 
555.951  1.70600000e+03 
555.915  1.74000000e+03 
555.878  1.77700000e+03 
555.842  1.81000000e+03 
555.806  1.78300000e+03 
555.770  1.79800000e+03 
555.734  1.80300000e+03 
555.698  1.76600000e+03 
555.662  1.83600000e+03 
555.626  1.93100000e+03 
555.590  1.84300000e+03 
555.554  1.76400000e+03 
555.518  1.83000000e+03 
555.482  1.83800000e+03 
555.445  1.83500000e+03 
555.409  1.91400000e+03 
555.373  1.89100000e+03 
555.337  1.84900000e+03 
555.301  1.87400000e+03 
555.265  1.90400000e+03 
555.229  1.87400000e+03 
555.193  1.88400000e+03 
555.157  1.88400000e+03 
555.121  1.94400000e+03 
555.085  1.92900000e+03 
555.049  1.96800000e+03 
555.013  1.92500000e+03 
554.976  1.99900000e+03 
554.940  1.95700000e+03 
554.904  2.01800000e+03 
554.868  2.03900000e+03 
554.832  1.91600000e+03 
554.796  1.94900000e+03 
554.760  1.97400000e+03 
554.724  2.00000000e+03 
554.688  1.99100000e+03 
554.652  2.02800000e+03 
554.616  2.06900000e+03 
554.580  2.00500000e+03 
554.544  1.86500000e+03 
554.507  2.02600000e+03 
554.471  1.99000000e+03 
554.435  1.90200000e+03 
554.399  2.07900000e+03 
554.363  1.99100000e+03 
554.327  1.94400000e+03 
554.291  1.82400000e+03 
554.255  2.02900000e+03 
554.219  2.01800000e+03 
554.183  2.03300000e+03 
554.147  1.95700000e+03 
554.111  2.04000000e+03 
554.075  1.92900000e+03 
554.038  1.98800000e+03 
554.002  1.94700000e+03 
553.966  2.11300000e+03 
553.930  2.10200000e+03 
553.894  2.11000000e+03 
553.858  2.07400000e+03 
553.822  2.06700000e+03 
553.786  2.12600000e+03 
553.750  2.10800000e+03 
553.714  2.12000000e+03 
553.678  2.13200000e+03 
553.642  2.07100000e+03 
553.605  2.15600000e+03 
553.569  2.06300000e+03 
553.533  2.14600000e+03 
553.497  2.14500000e+03 
553.461  2.14300000e+03 
553.425  2.10300000e+03 
553.389  2.13100000e+03 
553.353  2.07800000e+03 
553.317  2.04700000e+03 
553.281  2.07400000e+03 
553.245  2.07500000e+03 
553.209  2.03600000e+03 
553.173  2.00200000e+03 
553.136  2.04200000e+03 
553.100  2.02500000e+03 
553.064  2.03600000e+03 
553.028  2.12000000e+03 
552.992  2.01100000e+03 
552.956  2.07200000e+03 
552.920  2.01600000e+03 
552.884  2.00500000e+03 
552.848  1.95900000e+03 
552.812  1.98900000e+03 
552.776  1.90300000e+03 
552.740  1.97700000e+03 
552.704  2.01400000e+03 
552.667  2.01600000e+03 
552.631  1.97400000e+03 
552.595  1.94400000e+03 
552.559  1.98100000e+03 
552.523  1.93300000e+03 
552.487  1.87600000e+03 
552.451  1.95700000e+03 
552.415  1.98100000e+03 
552.379  1.94200000e+03 
552.343  1.90200000e+03 
552.307  1.91000000e+03 
552.271  1.94000000e+03 
552.235  1.97500000e+03 
552.198  1.87800000e+03 
552.162  1.98800000e+03 
552.126  1.89400000e+03 
552.090  1.95600000e+03 
552.054  1.91200000e+03 
552.018  1.93900000e+03 
551.982  1.94000000e+03 
551.946  1.86900000e+03 
551.910  1.88900000e+03 
551.874  1.89300000e+03 
551.838  1.81300000e+03 
551.802  1.68400000e+03 
