EXPERIMENT FILE
Version = 2

[ Experiment Parameters ]
Experiment Description= Third 
Number_of_Regions_in_Experiment= 10 

Original_File_name= C:\alexesca\data\Noise]\Attempt1_30Cu111014.xps.xps.xps 
Instrument= HP ESCA West
Date= 11-11-2014
Time=  21:29:59

[ Layer Parameters ]
Layer_Type= XPS

[ Region 1 Parameters ]
Region_Description = Fixed552eV                         
BEcenter(eV) = 552.000000
BEwidth(eV) = 9.200000
BEstep(eV) = 0.035938
Dwell_Time(sec) = 1.000000
N_o_scans = 1000  
N_o_Channels = 256  
Scan_mode = 1  (FIXED)

[ Region 2 Parameters ]
Region_Description = Fixed552eV                         
BEcenter(eV) = 552.000000
BEwidth(eV) = 9.200000
BEstep(eV) = 0.035938
Dwell_Time(sec) = 1.000000
N_o_scans = 1000  
N_o_Channels = 256  
Scan_mode = 1  (FIXED)

[ Region 3 Parameters ]
Region_Description = Fixed552eV                         
BEcenter(eV) = 552.000000
BEwidth(eV) = 9.200000
BEstep(eV) = 0.035938
Dwell_Time(sec) = 1.000000
N_o_scans = 1000  
N_o_Channels = 256  
Scan_mode = 1  (FIXED)

[ Region 4 Parameters ]
Region_Description = Fixed552eV                         
BEcenter(eV) = 552.000000
BEwidth(eV) = 9.200000
BEstep(eV) = 0.035938
Dwell_Time(sec) = 1.000000
N_o_scans = 1000  
N_o_Channels = 256  
Scan_mode = 1  (FIXED)

[ Region 5 Parameters ]
Region_Description = Fixed552eV                         
BEcenter(eV) = 552.000000
BEwidth(eV) = 9.200000
BEstep(eV) = 0.035938
Dwell_Time(sec) = 1.000000
N_o_scans = 1000  
N_o_Channels = 256  
Scan_mode = 1  (FIXED)

[ Region 6 Parameters ]
Region_Description = Fixed552eV                         
BEcenter(eV) = 552.000000
BEwidth(eV) = 9.200000
BEstep(eV) = 0.035938
Dwell_Time(sec) = 1.000000
N_o_scans = 1000  
N_o_Channels = 256  
Scan_mode = 1  (FIXED)

[ Region 7 Parameters ]
Region_Description = Fixed552eV                         
BEcenter(eV) = 552.000000
BEwidth(eV) = 9.200000
BEstep(eV) = 0.035938
Dwell_Time(sec) = 1.000000
N_o_scans = 1000  
N_o_Channels = 256  
Scan_mode = 1  (FIXED)

[ Region 8 Parameters ]
Region_Description = Fixed552eV                         
BEcenter(eV) = 552.000000
BEwidth(eV) = 9.200000
BEstep(eV) = 0.035938
Dwell_Time(sec) = 1.000000
N_o_scans = 1000  
N_o_Channels = 256  
Scan_mode = 1  (FIXED)

[ Region 9 Parameters ]
Region_Description = Fixed552eV                         
BEcenter(eV) = 552.000000
BEwidth(eV) = 9.200000
BEstep(eV) = 0.035938
Dwell_Time(sec) = 1.000000
N_o_scans = 1000  
N_o_Channels = 256  
Scan_mode = 1  (FIXED)

[ Region 10 Parameters ]
Region_Description = Fixed552eV                         
BEcenter(eV) = 552.000000
BEwidth(eV) = 9.200000
BEstep(eV) = 0.035938
Dwell_Time(sec) = 1.000000
N_o_scans = 1000  
N_o_Channels = 256  
Scan_mode = 1  (FIXED)

[ L= 1 R= 1 ]
BEcenter= 552.000 
BEwidth= -9.200  
Excitation= 1486.600
Time_p_channel= 1000.000
Size= 256
556.600  1.61600000e+03 
556.564  1.65700000e+03 
556.528  1.69600000e+03 
556.492  1.78600000e+03 
556.456  1.73200000e+03 
556.420  1.75800000e+03 
556.384  1.74700000e+03 
556.347  1.87100000e+03 
556.311  1.80500000e+03 
556.275  1.73400000e+03 
556.239  1.77900000e+03 
556.203  1.77200000e+03 
556.167  1.85200000e+03 
556.131  1.86600000e+03 
556.095  1.79700000e+03 
556.059  1.69000000e+03 
556.023  1.81800000e+03 
555.987  1.78100000e+03 
555.951  1.81300000e+03 
555.915  1.81900000e+03 
555.878  1.74200000e+03 
555.842  1.84900000e+03 
555.806  1.79900000e+03 
555.770  1.80300000e+03 
555.734  1.76500000e+03 
555.698  1.77800000e+03 
555.662  1.79800000e+03 
555.626  1.85600000e+03 
555.590  1.81000000e+03 
555.554  1.79900000e+03 
555.518  1.81800000e+03 
555.482  1.86000000e+03 
555.445  1.87800000e+03 
555.409  1.88800000e+03 
555.373  1.87900000e+03 
555.337  1.82700000e+03 
555.301  1.86400000e+03 
555.265  1.92900000e+03 
555.229  1.82500000e+03 
555.193  1.89300000e+03 
555.157  1.83900000e+03 
555.121  1.86100000e+03 
555.085  1.93200000e+03 
555.049  1.94400000e+03 
555.013  1.93400000e+03 
554.976  1.84700000e+03 
554.940  1.95800000e+03 
554.904  2.02500000e+03 
554.868  1.97500000e+03 
554.832  1.96000000e+03 
554.796  2.02800000e+03 
554.760  1.99300000e+03 
554.724  2.03300000e+03 
554.688  1.92800000e+03 
554.652  2.04100000e+03 
554.616  1.95000000e+03 
554.580  1.92200000e+03 
554.544  1.97000000e+03 
554.507  1.99200000e+03 
554.471  1.93400000e+03 
554.435  2.05200000e+03 
554.399  1.90400000e+03 
554.363  1.91800000e+03 
554.327  2.04700000e+03 
554.291  2.02500000e+03 
554.255  1.95500000e+03 
554.219  1.99400000e+03 
554.183  1.97000000e+03 
554.147  2.07200000e+03 
554.111  2.00000000e+03 
554.075  2.09900000e+03 
554.038  2.10300000e+03 
554.002  2.07600000e+03 
553.966  2.01600000e+03 
553.930  2.09500000e+03 
553.894  2.07600000e+03 
553.858  2.10800000e+03 
553.822  2.12900000e+03 
553.786  2.10300000e+03 
553.750  2.13300000e+03 
553.714  2.17400000e+03 
553.678  2.10700000e+03 
553.642  2.21700000e+03 
553.605  2.13400000e+03 
553.569  2.08900000e+03 
553.533  2.14500000e+03 
553.497  2.13000000e+03 
553.461  2.17600000e+03 
553.425  2.09600000e+03 
553.389  2.09300000e+03 
553.353  2.15000000e+03 
553.317  2.16400000e+03 
553.281  2.01900000e+03 
553.245  2.06400000e+03 
553.209  1.99200000e+03 
553.173  2.06600000e+03 
553.136  1.96800000e+03 
553.100  2.02800000e+03 
553.064  2.08500000e+03 
553.028  2.08600000e+03 
552.992  2.05100000e+03 
552.956  2.09100000e+03 
552.920  2.01800000e+03 
552.884  2.03900000e+03 
552.848  2.00100000e+03 
552.812  2.12300000e+03 
552.776  1.99400000e+03 
552.740  2.05000000e+03 
552.704  1.96800000e+03 
552.667  1.99200000e+03 
552.631  2.06400000e+03 
552.595  1.96100000e+03 
552.559  1.94600000e+03 
552.523  1.93200000e+03 
552.487  1.98200000e+03 
552.451  1.91200000e+03 
552.415  1.83000000e+03 
552.379  1.95400000e+03 
552.343  1.92800000e+03 
552.307  1.86600000e+03 
552.271  1.96700000e+03 
552.235  1.95800000e+03 
552.198  2.02100000e+03 
552.162  1.85400000e+03 
552.126  1.86900000e+03 
552.090  1.87800000e+03 
552.054  1.98400000e+03 
552.018  1.89500000e+03 
551.982  1.88400000e+03 
551.946  1.89500000e+03 
551.910  1.79200000e+03 
551.874  1.79500000e+03 
551.838  1.85600000e+03 
551.802  1.86800000e+03 
551.765  1.83500000e+03 
551.729  1.77300000e+03 
551.693  1.86300000e+03 
551.657  1.89100000e+03 
551.621  1.81100000e+03 
551.585  1.84800000e+03 
551.549  1.74400000e+03 
551.513  1.79400000e+03 
551.477  1.89700000e+03 
551.441  1.77900000e+03 
551.405  1.81100000e+03 
551.369  1.81000000e+03 
551.333  1.72800000e+03 
551.296  1.81300000e+03 
551.260  1.78600000e+03 
551.224  1.85700000e+03 
551.188  1.77700000e+03 
551.152  1.78000000e+03 
551.116  1.71300000e+03 
551.080  1.78000000e+03 
551.044  1.71200000e+03 
551.008  1.73200000e+03 
550.972  1.69900000e+03 
550.936  1.79300000e+03 
550.900  1.73900000e+03 
550.864  1.70200000e+03 
550.827  1.66600000e+03 
550.791  1.74400000e+03 
550.755  1.66700000e+03 
550.719  1.71800000e+03 
550.683  1.70000000e+03 
550.647  1.62700000e+03 
550.611  1.65800000e+03 
550.575  1.67900000e+03 
550.539  1.72100000e+03 
550.503  1.69200000e+03 
550.467  1.66700000e+03 
550.431  1.61600000e+03 
550.395  1.67200000e+03 
550.358  1.56800000e+03 
550.322  1.64200000e+03 
550.286  1.61000000e+03 
550.250  1.67000000e+03 
550.214  1.69000000e+03 
550.178  1.63500000e+03 
550.142  1.67400000e+03 
550.106  1.66200000e+03 
550.070  1.64000000e+03 
550.034  1.68600000e+03 
549.998  1.60700000e+03 
549.962  1.67500000e+03 
549.925  1.52800000e+03 
549.889  1.64900000e+03 
549.853  1.65200000e+03 
549.817  1.62600000e+03 
549.781  1.55700000e+03 
549.745  1.59100000e+03 
549.709  1.57600000e+03 
549.673  1.56000000e+03 
549.637  1.55100000e+03 
549.601  1.52100000e+03 
549.565  1.58000000e+03 
549.529  1.57600000e+03 
549.493  1.49200000e+03 
549.456  1.50600000e+03 
549.420  1.52500000e+03 
549.384  1.48300000e+03 
549.348  1.50900000e+03 
549.312  1.46800000e+03 
549.276  1.46100000e+03 
549.240  1.51400000e+03 
549.204  1.51300000e+03 
549.168  1.47400000e+03 
549.132  1.46500000e+03 
549.096  1.47200000e+03 
549.060  1.50100000e+03 
549.024  1.46200000e+03 
548.987  1.43300000e+03 
548.951  1.46200000e+03 
548.915  1.39600000e+03 
548.879  1.50400000e+03 
548.843  1.34200000e+03 
548.807  1.32600000e+03 
548.771  1.38600000e+03 
548.735  1.44200000e+03 
548.699  1.37200000e+03 
548.663  1.37500000e+03 
548.627  1.38000000e+03 
548.591  1.27700000e+03 
548.555  1.39600000e+03 
548.518  1.40700000e+03 
548.482  1.40900000e+03 
548.446  1.25700000e+03 
548.410  1.29600000e+03 
548.374  1.34300000e+03 
548.338  1.32200000e+03 
548.302  1.35800000e+03 
548.266  1.32100000e+03 
548.230  1.26800000e+03 
548.194  1.32700000e+03 
548.158  1.31000000e+03 
548.122  1.23600000e+03 
548.085  1.27300000e+03 
548.049  1.28700000e+03 
548.013  1.28400000e+03 
547.977  1.27900000e+03 
547.941  1.37500000e+03 
547.905  1.27800000e+03 
547.869  1.21500000e+03 
547.833  1.22300000e+03 
547.797  1.26400000e+03 
547.761  1.04900000e+03 
547.725  9.24000000e+02 
547.689  1.05500000e+03 
547.653  8.12000000e+02 
547.616  9.84000000e+02 
547.580  9.19000000e+02 
547.544  6.21000000e+02 
547.508  6.72000000e+02 
547.472  3.24000000e+02 
547.436  0.00000000e+00 
547.400  0.00000000e+00 

[ L= 1 R= 2 ]
BEcenter= 552.000 
BEwidth= -9.200  
Excitation= 1486.600
Time_p_channel= 1000.000
Size= 256
556.600  1.70300000e+03 
556.564  1.65900000e+03 
556.528  1.72500000e+03 
556.492  1.73600000e+03 
556.456  1.72600000e+03 
556.420  1.74600000e+03 
556.384  1.69800000e+03 
556.347  1.80400000e+03 
556.311  1.76500000e+03 
556.275  1.76600000e+03 
556.239  1.78500000e+03 
556.203  1.78500000e+03 
556.167  1.80800000e+03 
556.131  1.73000000e+03 
556.095  1.74800000e+03 
556.059  1.84000000e+03 
556.023  1.85200000e+03 
555.987  1.83700000e+03 
555.951  1.84700000e+03 
555.915  1.76200000e+03 
555.878  1.83700000e+03 
555.842  1.80900000e+03 
555.806  1.75800000e+03 
555.770  1.81100000e+03 
555.734  1.80600000e+03 
555.698  1.85200000e+03 
555.662  1.76100000e+03 
555.626  1.81700000e+03 
555.590  1.78800000e+03 
555.554  1.88300000e+03 
555.518  1.89300000e+03 
555.482  1.87300000e+03 
555.445  1.86400000e+03 
555.409  1.87400000e+03 
555.373  1.86300000e+03 
555.337  1.83100000e+03 
555.301  1.96600000e+03 
555.265  1.87100000e+03 
555.229  1.86500000e+03 
555.193  1.93700000e+03 
555.157  1.95800000e+03 
555.121  1.89400000e+03 
555.085  1.78300000e+03 
555.049  1.87900000e+03 
555.013  1.91500000e+03 
554.976  1.93200000e+03 
554.940  1.89000000e+03 
554.904  2.00500000e+03 
554.868  2.00700000e+03 
554.832  1.96400000e+03 
554.796  1.96200000e+03 
554.760  1.98900000e+03 
554.724  1.95000000e+03 
554.688  1.99800000e+03 
554.652  1.93300000e+03 
554.616  1.96400000e+03 
554.580  2.04900000e+03 
554.544  2.01500000e+03 
554.507  1.97900000e+03 
554.471  1.96800000e+03 
554.435  2.02400000e+03 
554.399  1.86000000e+03 
554.363  2.00000000e+03 
554.327  1.93500000e+03 
554.291  1.97800000e+03 
554.255  1.93200000e+03 
554.219  2.00800000e+03 
554.183  2.03000000e+03 
554.147  2.04900000e+03 
554.111  1.99800000e+03 
554.075  1.94400000e+03 
554.038  1.98500000e+03 
554.002  2.03000000e+03 
553.966  2.03200000e+03 
553.930  2.02600000e+03 
553.894  2.15400000e+03 
553.858  2.15800000e+03 
553.822  2.14600000e+03 
553.786  1.97900000e+03 
553.750  2.12200000e+03 
553.714  2.03900000e+03 
553.678  2.17400000e+03 
553.642  2.12300000e+03 
553.605  2.10400000e+03 
553.569  2.18300000e+03 
553.533  2.15600000e+03 
553.497  2.12100000e+03 
553.461  2.18100000e+03 
553.425  2.18000000e+03 
553.389  2.11900000e+03 
553.353  2.18700000e+03 
553.317  2.07200000e+03 
553.281  2.15700000e+03 
553.245  2.09800000e+03 
553.209  2.01800000e+03 
553.173  2.14000000e+03 
553.136  2.00800000e+03 
553.100  2.05400000e+03 
553.064  1.97500000e+03 
553.028  2.05700000e+03 
552.992  2.08800000e+03 
552.956  2.03400000e+03 
552.920  1.99700000e+03 
552.884  1.99300000e+03 
552.848  2.03800000e+03 
552.812  1.98200000e+03 
552.776  2.03500000e+03 
552.740  2.01200000e+03 
552.704  2.00000000e+03 
552.667  2.02000000e+03 
552.631  1.99200000e+03 
552.595  1.87100000e+03 
552.559  1.91000000e+03 
552.523  1.97200000e+03 
552.487  1.94600000e+03 
552.451  1.92900000e+03 
552.415  1.93400000e+03 
552.379  1.89900000e+03 
552.343  1.89400000e+03 
552.307  1.87200000e+03 
552.271  1.95000000e+03 
552.235  1.89900000e+03 
552.198  1.89600000e+03 
552.162  1.94200000e+03 
552.126  1.94700000e+03 
552.090  1.94800000e+03 
552.054  1.92200000e+03 
552.018  1.95000000e+03 
551.982  1.89600000e+03 
551.946  1.85300000e+03 
551.910  1.84300000e+03 
551.874  1.81100000e+03 
551.838  1.86800000e+03 
551.802  1.88900000e+03 
551.765  1.92000000e+03 
551.729  1.85100000e+03 
551.693  1.91900000e+03 
551.657  1.78800000e+03 
551.621  1.83600000e+03 
551.585  1.83600000e+03 
551.549  1.81900000e+03 
551.513  1.78100000e+03 
551.477  1.77100000e+03 
551.441  1.93000000e+03 
551.405  1.78500000e+03 
551.369  1.82600000e+03 
551.333  1.77300000e+03 
551.296  1.82600000e+03 
551.260  1.81600000e+03 
551.224  1.79600000e+03 
551.188  1.73800000e+03 
551.152  1.76400000e+03 
551.116  1.66700000e+03 
551.080  1.66400000e+03 
551.044  1.73300000e+03 
551.008  1.74400000e+03 
550.972  1.79800000e+03 
550.936  1.80200000e+03 
550.900  1.69600000e+03 
550.864  1.76400000e+03 
550.827  1.75900000e+03 
550.791  1.75400000e+03 
550.755  1.63900000e+03 
550.719  1.64300000e+03 
550.683  1.60300000e+03 
550.647  1.66100000e+03 
550.611  1.68900000e+03 
550.575  1.66000000e+03 
550.539  1.62100000e+03 
550.503  1.66000000e+03 
550.467  1.70500000e+03 
550.431  1.73800000e+03 
550.395  1.63800000e+03 
550.358  1.60800000e+03 
550.322  1.64900000e+03 
550.286  1.74200000e+03 
550.250  1.69200000e+03 
550.214  1.68100000e+03 
550.178  1.65200000e+03 
550.142  1.70300000e+03 
550.106  1.68600000e+03 
550.070  1.66600000e+03 
550.034  1.59300000e+03 
549.998  1.63400000e+03 
549.962  1.74600000e+03 
549.925  1.66000000e+03 
549.889  1.61200000e+03 
549.853  1.64300000e+03 
549.817  1.63000000e+03 
549.781  1.59500000e+03 
549.745  1.61800000e+03 
549.709  1.63600000e+03 
549.673  1.65200000e+03 
549.637  1.52000000e+03 
549.601  1.60100000e+03 
549.565  1.62000000e+03 
549.529  1.53800000e+03 
549.493  1.61200000e+03 
549.456  1.46300000e+03 
549.420  1.52200000e+03 
549.384  1.48000000e+03 
549.348  1.46700000e+03 
549.312  1.44500000e+03 
549.276  1.52200000e+03 
549.240  1.53300000e+03 
549.204  1.41400000e+03 
549.168  1.44700000e+03 
549.132  1.43300000e+03 
549.096  1.49000000e+03 
549.060  1.39900000e+03 
549.024  1.50900000e+03 
548.987  1.49600000e+03 
548.951  1.43800000e+03 
548.915  1.39100000e+03 
548.879  1.45000000e+03 
548.843  1.34100000e+03 
548.807  1.37200000e+03 
548.771  1.41900000e+03 
548.735  1.35500000e+03 
548.699  1.34100000e+03 
548.663  1.32900000e+03 
548.627  1.33000000e+03 
548.591  1.36400000e+03 
548.555  1.30700000e+03 
548.518  1.35700000e+03 
548.482  1.28500000e+03 
548.446  1.31600000e+03 
548.410  1.33000000e+03 
548.374  1.28800000e+03 
548.338  1.31700000e+03 
548.302  1.41300000e+03 
548.266  1.31800000e+03 
548.230  1.29300000e+03 
548.194  1.36400000e+03 
548.158  1.36100000e+03 
548.122  1.28000000e+03 
548.085  1.24900000e+03 
548.049  1.28700000e+03 
548.013  1.28800000e+03 
547.977  1.31700000e+03 
547.941  1.23600000e+03 
547.905  1.27200000e+03 
547.869  1.21700000e+03 
547.833  1.08100000e+03 
547.797  1.26200000e+03 
547.761  1.03900000e+03 
547.725  9.92000000e+02 
547.689  1.06800000e+03 
547.653  8.10000000e+02 
547.616  9.48000000e+02 
547.580  9.37000000e+02 
547.544  6.94000000e+02 
547.508  6.78000000e+02 
547.472  3.20000000e+02 
547.436  0.00000000e+00 
547.400  0.00000000e+00 

[ L= 1 R= 3 ]
BEcenter= 552.000 
BEwidth= -9.200  
Excitation= 1486.600
Time_p_channel= 1000.000
Size= 256
556.600  1.63500000e+03 
556.564  1.66500000e+03 
556.528  1.73300000e+03 
556.492  1.70700000e+03 
556.456  1.75600000e+03 
556.420  1.66100000e+03 
556.384  1.76400000e+03 
556.347  1.75000000e+03 
556.311  1.80400000e+03 
556.275  1.79600000e+03 
556.239  1.81000000e+03 
556.203  1.80200000e+03 
556.167  1.81500000e+03 
556.131  1.85800000e+03 
556.095  1.73200000e+03 
556.059  1.85800000e+03 
556.023  1.76900000e+03 
555.987  1.80800000e+03 
555.951  1.77000000e+03 
555.915  1.76900000e+03 
555.878  1.81400000e+03 
555.842  1.67300000e+03 
555.806  1.85900000e+03 
555.770  1.74900000e+03 
555.734  1.77700000e+03 
555.698  1.79600000e+03 
555.662  1.77200000e+03 
555.626  1.84200000e+03 
555.590  1.82400000e+03 
555.554  1.84200000e+03 
555.518  1.90400000e+03 
555.482  1.90900000e+03 
555.445  1.83500000e+03 
555.409  1.83800000e+03 
555.373  1.83900000e+03 
555.337  1.79000000e+03 
555.301  1.88400000e+03 
555.265  1.84300000e+03 
555.229  1.84800000e+03 
555.193  1.95000000e+03 
555.157  1.86100000e+03 
555.121  1.95100000e+03 
555.085  1.90800000e+03 
555.049  1.88900000e+03 
555.013  1.99600000e+03 
554.976  1.90700000e+03 
554.940  1.94100000e+03 
554.904  2.01100000e+03 
554.868  1.98600000e+03 
554.832  1.95800000e+03 
554.796  2.01600000e+03 
554.760  1.95600000e+03 
554.724  2.04900000e+03 
554.688  2.03300000e+03 
554.652  2.01000000e+03 
554.616  2.00400000e+03 
554.580  1.95300000e+03 
554.544  1.97300000e+03 
554.507  2.08600000e+03 
554.471  1.98700000e+03 
554.435  2.06500000e+03 
554.399  2.04800000e+03 
554.363  1.98800000e+03 
554.327  2.05300000e+03 
554.291  1.95800000e+03 
554.255  2.02500000e+03 
554.219  1.96700000e+03 
554.183  2.01800000e+03 
554.147  1.96100000e+03 
554.111  2.01200000e+03 
554.075  2.03500000e+03 
554.038  1.98500000e+03 
554.002  2.05600000e+03 
553.966  2.05500000e+03 
553.930  2.05600000e+03 
553.894  2.10300000e+03 
553.858  2.08500000e+03 
553.822  2.14000000e+03 
553.786  2.09100000e+03 
553.750  2.09200000e+03 
553.714  2.08300000e+03 
553.678  2.11200000e+03 
553.642  2.14300000e+03 
553.605  2.15400000e+03 
553.569  2.13600000e+03 
553.533  2.12500000e+03 
553.497  2.11100000e+03 
553.461  2.16300000e+03 
553.425  2.19600000e+03 
553.389  2.09700000e+03 
553.353  2.14100000e+03 
553.317  2.13900000e+03 
553.281  2.12700000e+03 
553.245  2.10200000e+03 
553.209  2.00200000e+03 
553.173  2.00100000e+03 
553.136  2.00400000e+03 
553.100  1.99000000e+03 
553.064  2.03900000e+03 
553.028  1.97900000e+03 
552.992  2.15400000e+03 
552.956  2.06000000e+03 
552.920  2.09300000e+03 
552.884  2.02300000e+03 
552.848  2.07300000e+03 
552.812  2.04100000e+03 
552.776  2.00200000e+03 
552.740  1.95500000e+03 
552.704  1.98500000e+03 
552.667  2.04300000e+03 
552.631  2.02300000e+03 
552.595  2.03900000e+03 
552.559  1.93600000e+03 
552.523  2.01400000e+03 
552.487  2.00600000e+03 
552.451  1.97200000e+03 
552.415  1.98300000e+03 
552.379  1.94100000e+03 
552.343  1.96000000e+03 
552.307  2.02200000e+03 
552.271  1.92900000e+03 
552.235  1.94700000e+03 
552.198  1.90000000e+03 
552.162  2.00400000e+03 
552.126  1.97800000e+03 
552.090  1.90500000e+03 
552.054  1.90500000e+03 
552.018  1.91700000e+03 
551.982  1.88300000e+03 
551.946  1.80200000e+03 
551.910  1.90700000e+03 
551.874  1.79000000e+03 
551.838  1.89200000e+03 
551.802  1.84000000e+03 
