EXPERIMENT FILE
Version = 2

[ Experiment Parameters ]
Experiment Description= Nosie854_1 
Number_of_Regions_in_Experiment= 10 

Original_File_name= C:\alexesca\data\Noise]\Noise854_10Cu111714.xps 
Instrument= HP ESCA West
Date= 11-17-2014
Time=  11:53:49

[ Layer Parameters ]
Layer_Type= XPS

[ Region 1 Parameters ]
Region_Description = Fixed854eV                         
BEcenter(eV) = 854.000000
BEwidth(eV) = 9.200000
BEstep(eV) = 0.035937
Dwell_Time(sec) = 1.000000
N_o_scans = 1000  
N_o_Channels = 256  
Scan_mode = 1  (FIXED)

[ Region 2 Parameters ]
Region_Description = Fixed854eV                         
BEcenter(eV) = 854.000000
BEwidth(eV) = 9.200000
BEstep(eV) = 0.035937
Dwell_Time(sec) = 1.000000
N_o_scans = 1000  
N_o_Channels = 256  
Scan_mode = 1  (FIXED)

[ Region 3 Parameters ]
Region_Description = Fixed854eV                         
BEcenter(eV) = 854.000000
BEwidth(eV) = 9.200000
BEstep(eV) = 0.035937
Dwell_Time(sec) = 1.000000
N_o_scans = 1000  
N_o_Channels = 256  
Scan_mode = 1  (FIXED)

[ Region 4 Parameters ]
Region_Description = Fixed854eV                         
BEcenter(eV) = 854.000000
BEwidth(eV) = 9.200000
BEstep(eV) = 0.035937
Dwell_Time(sec) = 1.000000
N_o_scans = 1000  
N_o_Channels = 256  
Scan_mode = 1  (FIXED)

[ Region 5 Parameters ]
Region_Description = Fixed854eV                         
BEcenter(eV) = 854.000000
BEwidth(eV) = 9.200000
BEstep(eV) = 0.035937
Dwell_Time(sec) = 1.000000
N_o_scans = 1000  
N_o_Channels = 256  
Scan_mode = 1  (FIXED)

[ Region 6 Parameters ]
Region_Description = Fixed854eV                         
BEcenter(eV) = 854.000000
BEwidth(eV) = 9.200000
BEstep(eV) = 0.035937
Dwell_Time(sec) = 1.000000
N_o_scans = 1000  
N_o_Channels = 256  
Scan_mode = 1  (FIXED)

[ Region 7 Parameters ]
Region_Description = Fixed854eV                         
BEcenter(eV) = 854.000000
BEwidth(eV) = 9.200000
BEstep(eV) = 0.035937
Dwell_Time(sec) = 1.000000
N_o_scans = 1000  
N_o_Channels = 256  
Scan_mode = 1  (FIXED)

[ Region 8 Parameters ]
Region_Description = Fixed854eV                         
BEcenter(eV) = 854.000000
BEwidth(eV) = 9.200000
BEstep(eV) = 0.035937
Dwell_Time(sec) = 1.000000
N_o_scans = 1000  
N_o_Channels = 256  
Scan_mode = 1  (FIXED)

[ Region 9 Parameters ]
Region_Description = Fixed854eV                         
BEcenter(eV) = 854.000000
BEwidth(eV) = 9.200000
BEstep(eV) = 0.035937
Dwell_Time(sec) = 1.000000
N_o_scans = 1000  
N_o_Channels = 256  
Scan_mode = 1  (FIXED)

[ Region 10 Parameters ]
Region_Description = Fixed854eV                         
BEcenter(eV) = 854.000000
BEwidth(eV) = 9.200000
BEstep(eV) = 0.035937
Dwell_Time(sec) = 1.000000
N_o_scans = 1000  
N_o_Channels = 256  
Scan_mode = 1  (FIXED)

[ L= 1 R= 1 ]
BEcenter= 854.000 
BEwidth= -9.200  
Excitation= 1486.600
Time_p_channel= 1000.000
Size= 256
858.600  1.75700000e+03 
858.564  1.75300000e+03 
858.528  1.79500000e+03 
858.492  1.80600000e+03 
858.456  1.82200000e+03 
858.420  1.75000000e+03 
858.384  1.78300000e+03 
858.347  1.80000000e+03 
858.311  1.81600000e+03 
858.275  1.88900000e+03 
858.239  1.87200000e+03 
858.203  1.87900000e+03 
858.167  1.80200000e+03 
858.131  1.89500000e+03 
858.095  1.89100000e+03 
858.059  1.80800000e+03 
858.023  1.87200000e+03 
857.987  1.98100000e+03 
857.951  1.91200000e+03 
857.915  1.89800000e+03 
857.878  1.86900000e+03 
857.842  1.90500000e+03 
857.806  1.89000000e+03 
857.770  2.00000000e+03 
857.734  1.90500000e+03 
857.698  2.03500000e+03 
857.662  1.92900000e+03 
857.626  1.87500000e+03 
857.590  2.03800000e+03 
857.554  2.01200000e+03 
857.518  1.97100000e+03 
857.482  1.93600000e+03 
857.445  2.07400000e+03 
857.409  2.05200000e+03 
857.373  2.06700000e+03 
857.337  2.01600000e+03 
857.301  2.03600000e+03 
857.265  2.03300000e+03 
857.229  2.00500000e+03 
857.193  2.04700000e+03 
857.157  1.97000000e+03 
857.121  1.93800000e+03 
857.085  2.08500000e+03 
857.049  2.13100000e+03 
857.013  2.17600000e+03 
856.976  2.12000000e+03 
856.940  2.20500000e+03 
856.904  2.09800000e+03 
856.868  2.14900000e+03 
856.832  2.11500000e+03 
856.796  2.05900000e+03 
856.760  2.12800000e+03 
856.724  2.16800000e+03 
856.688  2.22000000e+03 
856.652  2.15600000e+03 
856.616  2.21600000e+03 
856.580  2.11400000e+03 
856.544  2.15200000e+03 
856.507  2.11800000e+03 
856.471  2.23600000e+03 
856.435  2.20700000e+03 
856.399  2.14100000e+03 
856.363  2.13200000e+03 
856.327  2.10100000e+03 
856.291  2.18100000e+03 
856.255  2.18700000e+03 
856.219  2.18300000e+03 
856.183  2.17700000e+03 
856.147  2.24500000e+03 
856.111  2.19200000e+03 
856.075  2.25100000e+03 
856.038  2.16200000e+03 
856.002  2.21300000e+03 
855.966  2.20400000e+03 
855.930  2.28300000e+03 
855.894  2.22200000e+03 
855.858  2.22500000e+03 
855.822  2.32300000e+03 
855.786  2.22700000e+03 
855.750  2.26300000e+03 
855.714  2.24000000e+03 
855.678  2.28000000e+03 
855.642  2.26700000e+03 
855.605  2.30800000e+03 
855.569  2.25700000e+03 
855.533  2.26800000e+03 
855.497  2.30400000e+03 
855.461  2.30400000e+03 
855.425  2.32100000e+03 
855.389  2.26500000e+03 
855.353  2.23600000e+03 
855.317  2.28300000e+03 
855.281  2.24500000e+03 
855.245  2.17700000e+03 
855.209  2.15900000e+03 
855.173  2.22500000e+03 
855.136  2.17200000e+03 
855.100  2.03500000e+03 
855.064  2.23500000e+03 
855.028  2.22600000e+03 
854.992  2.18900000e+03 
854.956  2.17800000e+03 
854.920  2.12800000e+03 
854.884  2.22100000e+03 
854.848  2.15400000e+03 
854.812  2.18000000e+03 
854.776  2.17300000e+03 
854.740  2.10900000e+03 
854.704  2.11800000e+03 
854.667  2.12000000e+03 
854.631  2.04500000e+03 
854.595  2.13600000e+03 
854.559  2.07300000e+03 
854.523  2.08100000e+03 
854.487  2.06800000e+03 
854.451  2.06500000e+03 
854.415  2.00000000e+03 
854.379  1.98800000e+03 
854.343  2.00200000e+03 
854.307  2.01100000e+03 
854.271  2.05600000e+03 
854.235  2.05300000e+03 
854.198  2.04900000e+03 
854.162  2.09900000e+03 
854.126  2.06500000e+03 
854.090  1.99000000e+03 
854.054  1.92000000e+03 
854.018  2.03200000e+03 
853.982  1.95100000e+03 
853.946  1.96100000e+03 
853.910  1.94800000e+03 
853.874  1.92300000e+03 
853.838  1.95200000e+03 
853.802  1.91700000e+03 
853.765  1.92800000e+03 
853.729  1.96100000e+03 
853.693  2.00200000e+03 
853.657  1.97800000e+03 
853.621  2.00100000e+03 
853.585  1.99700000e+03 
853.549  1.96400000e+03 
853.513  1.88500000e+03 
853.477  1.86500000e+03 
853.441  1.97500000e+03 
853.405  1.89700000e+03 
853.369  1.96900000e+03 
853.333  1.90500000e+03 
853.296  1.83900000e+03 
853.260  1.94700000e+03 
853.224  1.85500000e+03 
853.188  1.89000000e+03 
853.152  1.89100000e+03 
853.116  1.82100000e+03 
853.080  1.82800000e+03 
853.044  1.84600000e+03 
853.008  1.83100000e+03 
852.972  1.81700000e+03 
852.936  1.87000000e+03 
852.900  1.85800000e+03 
852.864  1.84100000e+03 
852.827  1.87400000e+03 
852.791  1.86400000e+03 
852.755  1.83700000e+03 
852.719  1.78600000e+03 
852.683  1.77800000e+03 
852.647  1.90200000e+03 
852.611  1.71900000e+03 
852.575  1.82200000e+03 
852.539  1.75000000e+03 
852.503  1.87200000e+03 
852.467  1.70500000e+03 
852.431  1.89900000e+03 
852.395  1.78100000e+03 
852.358  1.71200000e+03 
852.322  1.76700000e+03 
852.286  1.68500000e+03 
852.250  1.69800000e+03 
852.214  1.77300000e+03 
852.178  1.70200000e+03 
852.142  1.80900000e+03 
852.106  1.73600000e+03 
852.070  1.84100000e+03 
852.034  1.78900000e+03 
851.998  1.78900000e+03 
851.962  1.77300000e+03 
851.925  1.80200000e+03 
851.889  1.81100000e+03 
851.853  1.74700000e+03 
851.817  1.65100000e+03 
851.781  1.75500000e+03 
851.745  1.71000000e+03 
851.709  1.66700000e+03 
851.673  1.68600000e+03 
851.637  1.63500000e+03 
851.601  1.64600000e+03 
851.565  1.70000000e+03 
851.529  1.66400000e+03 
851.493  1.58800000e+03 
851.456  1.68200000e+03 
851.420  1.63300000e+03 
851.384  1.62500000e+03 
851.348  1.55200000e+03 
851.312  1.57100000e+03 
851.276  1.57600000e+03 
851.240  1.59900000e+03 
851.204  1.60000000e+03 
851.168  1.59000000e+03 
851.132  1.53200000e+03 
851.096  1.53400000e+03 
851.060  1.54700000e+03 
851.024  1.51900000e+03 
850.987  1.48200000e+03 
850.951  1.52500000e+03 
850.915  1.46400000e+03 
850.879  1.51000000e+03 
850.843  1.43000000e+03 
850.807  1.47900000e+03 
850.771  1.47100000e+03 
850.735  1.52600000e+03 
850.699  1.40300000e+03 
850.663  1.40300000e+03 
850.627  1.40600000e+03 
850.591  1.42200000e+03 
850.555  1.41800000e+03 
850.518  1.47200000e+03 
850.482  1.42000000e+03 
850.446  1.40700000e+03 
850.410  1.37900000e+03 
850.374  1.41500000e+03 
850.338  1.43900000e+03 
850.302  1.41900000e+03 
850.266  1.36900000e+03 
850.230  1.34100000e+03 
850.194  1.38700000e+03 
850.158  1.38800000e+03 
850.122  1.35500000e+03 
850.085  1.37100000e+03 
850.049  1.36400000e+03 
850.013  1.38800000e+03 
849.977  1.31300000e+03 
849.941  1.36700000e+03 
849.905  1.34200000e+03 
849.869  1.32100000e+03 
849.833  1.24700000e+03 
849.797  1.34500000e+03 
849.761  9.83000000e+02 
849.725  1.02500000e+03 
849.689  1.14600000e+03 
849.653  6.64260000e+04 
849.616  6.65600000e+04 
849.580  3.98210000e+04 
849.544  6.62630000e+04 
849.508  6.62030000e+04 
849.472  6.58780000e+04 
849.436  0.00000000e+00 
849.400  0.00000000e+00 

[ L= 1 R= 2 ]
BEcenter= 854.000 
BEwidth= -9.200  
Excitation= 1486.600
Time_p_channel= 1000.000
Size= 256
858.600  1.70200000e+03 
858.564  1.71800000e+03 
858.528  1.77700000e+03 
858.492  1.80700000e+03 
858.456  1.81200000e+03 
858.420  1.83900000e+03 
858.384  1.84400000e+03 
858.347  1.77800000e+03 
858.311  1.90100000e+03 
858.275  1.84600000e+03 
858.239  1.79900000e+03 
858.203  1.82000000e+03 
858.167  1.90300000e+03 
858.131  1.81400000e+03 
858.095  1.75900000e+03 
858.059  1.87100000e+03 
858.023  1.89800000e+03 
857.987  1.82200000e+03 
857.951  1.89100000e+03 
857.915  1.82300000e+03 
857.878  1.89400000e+03 
857.842  1.88700000e+03 
857.806  1.94100000e+03 
857.770  1.90800000e+03 
857.734  1.92800000e+03 
857.698  1.88900000e+03 
857.662  1.94400000e+03 
857.626  1.92800000e+03 
857.590  1.94700000e+03 
857.554  1.91300000e+03 
857.518  1.95600000e+03 
857.482  1.90600000e+03 
857.445  1.97800000e+03 
857.409  2.00300000e+03 
857.373  1.99400000e+03 
857.337  1.96400000e+03 
857.301  2.13800000e+03 
857.265  1.98800000e+03 
857.229  2.09000000e+03 
857.193  2.01500000e+03 
857.157  2.11200000e+03 
857.121  2.07800000e+03 
857.085  2.09400000e+03 
857.049  2.11200000e+03 
857.013  2.06100000e+03 
856.976  2.09800000e+03 
856.940  1.97400000e+03 
856.904  2.12800000e+03 
856.868  2.11200000e+03 
856.832  2.13700000e+03 
856.796  2.19100000e+03 
856.760  2.17100000e+03 
856.724  2.16900000e+03 
856.688  2.16900000e+03 
856.652  2.14700000e+03 
856.616  2.14500000e+03 
856.580  2.17500000e+03 
856.544  2.11500000e+03 
856.507  2.21000000e+03 
856.471  2.11400000e+03 
856.435  2.14700000e+03 
856.399  2.12000000e+03 
856.363  2.14900000e+03 
856.327  2.18200000e+03 
856.291  2.10700000e+03 
856.255  2.15900000e+03 
856.219  2.08700000e+03 
856.183  2.15200000e+03 
856.147  2.17300000e+03 
856.111  2.18300000e+03 
856.075  2.17800000e+03 
856.038  2.19100000e+03 
856.002  2.20400000e+03 
855.966  2.20000000e+03 
855.930  2.31200000e+03 
855.894  2.29000000e+03 
855.858  2.31200000e+03 
855.822  2.16900000e+03 
855.786  2.29600000e+03 
855.750  2.17300000e+03 
855.714  2.28600000e+03 
855.678  2.33100000e+03 
855.642  2.22500000e+03 
855.605  2.26500000e+03 
855.569  2.31200000e+03 
855.533  2.24300000e+03 
855.497  2.26600000e+03 
855.461  2.21600000e+03 
855.425  2.27800000e+03 
855.389  2.29000000e+03 
855.353  2.33700000e+03 
855.317  2.23700000e+03 
855.281  2.31000000e+03 
855.245  2.20900000e+03 
855.209  2.18800000e+03 
855.173  2.14900000e+03 
855.136  2.22600000e+03 
855.100  2.14700000e+03 
855.064  2.20500000e+03 
855.028  2.15600000e+03 
854.992  2.17200000e+03 
854.956  2.18100000e+03 
854.920  2.20100000e+03 
854.884  2.12700000e+03 
854.848  2.13100000e+03 
854.812  2.11900000e+03 
854.776  2.11400000e+03 
854.740  2.13100000e+03 
854.704  2.11000000e+03 
854.667  2.12400000e+03 
854.631  2.14400000e+03 
854.595  2.06600000e+03 
854.559  1.99600000e+03 
854.523  2.10300000e+03 
854.487  2.01800000e+03 
854.451  2.07800000e+03 
854.415  2.00800000e+03 
854.379  2.07700000e+03 
854.343  2.04700000e+03 
854.307  2.03700000e+03 
854.271  1.96800000e+03 
854.235  1.97900000e+03 
854.198  2.04400000e+03 
854.162  2.02000000e+03 
854.126  2.00000000e+03 
854.090  1.93800000e+03 
854.054  2.04000000e+03 
854.018  2.04400000e+03 
853.982  2.00200000e+03 
853.946  1.99700000e+03 
853.910  1.98600000e+03 
853.874  1.90500000e+03 
853.838  1.94400000e+03 
853.802  1.98200000e+03 
853.765  2.02400000e+03 
853.729  1.93800000e+03 
853.693  1.93400000e+03 
853.657  1.95000000e+03 
853.621  1.97800000e+03 
853.585  1.90100000e+03 
853.549  1.96300000e+03 
853.513  1.88700000e+03 
853.477  1.94900000e+03 
853.441  1.97500000e+03 
853.405  1.99100000e+03 
853.369  1.97500000e+03 
853.333  1.94700000e+03 
853.296  1.87400000e+03 
853.260  1.87400000e+03 
853.224  1.88100000e+03 
853.188  1.84200000e+03 
853.152  1.83000000e+03 
853.116  1.95900000e+03 
853.080  1.84200000e+03 
853.044  1.83800000e+03 
853.008  1.89100000e+03 
852.972  1.85700000e+03 
852.936  1.85000000e+03 
852.900  1.83500000e+03 
852.864  1.81100000e+03 
852.827  1.82200000e+03 
852.791  1.82200000e+03 
852.755  1.90300000e+03 
852.719  1.81700000e+03 
852.683  1.81800000e+03 
852.647  1.74800000e+03 
852.611  1.72200000e+03 
852.575  1.78100000e+03 
852.539  1.81200000e+03 
852.503  1.79500000e+03 
852.467  1.78700000e+03 
852.431  1.77500000e+03 
852.395  1.67400000e+03 
852.358  1.79700000e+03 
852.322  1.77900000e+03 
852.286  1.76900000e+03 
852.250  1.81400000e+03 
852.214  1.79000000e+03 
852.178  1.79300000e+03 
852.142  1.76800000e+03 
852.106  1.74200000e+03 
852.070  1.78500000e+03 
852.034  1.78100000e+03 
851.998  1.85800000e+03 
851.962  1.70800000e+03 
851.925  1.77500000e+03 
851.889  1.76400000e+03 
851.853  1.71800000e+03 
851.817  1.69000000e+03 
851.781  1.71500000e+03 
851.745  1.71000000e+03 
851.709  1.67400000e+03 
851.673  1.69900000e+03 
851.637  1.69700000e+03 
851.601  1.61000000e+03 
851.565  1.62600000e+03 
851.529  1.68200000e+03 
851.493  1.65200000e+03 
851.456  1.70000000e+03 
851.420  1.60600000e+03 
851.384  1.65000000e+03 
851.348  1.53400000e+03 
851.312  1.59900000e+03 
851.276  1.56700000e+03 
851.240  1.56100000e+03 
851.204  1.50400000e+03 
851.168  1.55500000e+03 
851.132  1.54500000e+03 
851.096  1.53500000e+03 
851.060  1.57300000e+03 
851.024  1.52700000e+03 
850.987  1.53300000e+03 
850.951  1.50400000e+03 
850.915  1.55100000e+03 
850.879  1.54000000e+03 
850.843  1.42700000e+03 
850.807  1.48800000e+03 
850.771  1.46600000e+03 
850.735  1.48200000e+03 
850.699  1.53000000e+03 
850.663  1.45500000e+03 
850.627  1.43200000e+03 
850.591  1.43100000e+03 
850.555  1.32500000e+03 
850.518  1.38200000e+03 
850.482  1.39500000e+03 
850.446  1.44500000e+03 
850.410  1.36600000e+03 
850.374  1.35400000e+03 
850.338  1.33200000e+03 
850.302  1.41400000e+03 
850.266  1.44100000e+03 
850.230  1.41800000e+03 
850.194  1.37800000e+03 
850.158  1.37700000e+03 
850.122  1.38900000e+03 
850.085  1.38700000e+03 
850.049  1.34400000e+03 
850.013  1.42300000e+03 
849.977  1.36400000e+03 
849.941  1.42000000e+03 
849.905  1.31400000e+03 
849.869  1.33600000e+03 
849.833  1.20200000e+03 
849.797  1.38600000e+03 
849.761  1.00300000e+03 
849.725  1.05900000e+03 
849.689  1.12600000e+03 
849.653  9.58000000e+02 
849.616  9.66000000e+02 
849.580  9.25000000e+02 
849.544  7.06000000e+02 
849.508  6.37000000e+02 
849.472  3.57000000e+02 
849.436  0.00000000e+00 
849.400  0.00000000e+00 

[ L= 1 R= 3 ]
BEcenter= 854.000 
BEwidth= -9.200  
Excitation= 1486.600
Time_p_channel= 1000.000
Size= 256
858.600  1.63700000e+03 
858.564  1.71300000e+03 
858.528  1.74000000e+03 
858.492  1.77400000e+03 
858.456  1.81100000e+03 
858.420  1.80100000e+03 
858.384  1.88100000e+03 
858.347  1.81000000e+03 
858.311  1.79100000e+03 
858.275  1.87000000e+03 
858.239  1.92300000e+03 
858.203  1.83900000e+03 
858.167  1.79900000e+03 
858.131  1.87000000e+03 
858.095  1.92500000e+03 
858.059  1.87900000e+03 
858.023  1.81600000e+03 
857.987  1.82200000e+03 
857.951  1.77400000e+03 
857.915  1.88700000e+03 
857.878  1.83200000e+03 
857.842  1.86700000e+03 
857.806  1.89800000e+03 
857.770  1.90300000e+03 
857.734  1.92500000e+03 
857.698  1.93100000e+03 
857.662  1.88800000e+03 
857.626  1.97900000e+03 
857.590  2.01400000e+03 
857.554  1.92800000e+03 
857.518  1.93200000e+03 
857.482  1.96800000e+03 
857.445  1.91600000e+03 
857.409  2.02900000e+03 
857.373  1.99500000e+03 
857.337  1.92400000e+03 
857.301  1.95600000e+03 
857.265  2.04300000e+03 
857.229  2.00700000e+03 
857.193  2.00500000e+03 
857.157  2.05300000e+03 
857.121  1.97000000e+03 
857.085  1.99600000e+03 
857.049  2.09800000e+03 
857.013  2.05000000e+03 
856.976  2.07500000e+03 
856.940  2.10000000e+03 
856.904  2.05200000e+03 
856.868  2.10900000e+03 
856.832  2.09000000e+03 
856.796  2.05700000e+03 
856.760  2.19900000e+03 
856.724  2.11200000e+03 
856.688  2.11700000e+03 
856.652  2.16200000e+03 
856.616  2.16000000e+03 
856.580  2.13800000e+03 
856.544  2.15800000e+03 
856.507  2.12300000e+03 
856.471  2.11400000e+03 
856.435  2.15700000e+03 
856.399  2.15800000e+03 
856.363  2.18400000e+03 
856.327  2.13900000e+03 
856.291  2.15200000e+03 
856.255  2.20100000e+03 
856.219  2.24800000e+03 
856.183  2.21500000e+03 
856.147  2.18400000e+03 
856.111  2.21500000e+03 
856.075  2.12700000e+03 
856.038  2.20200000e+03 
856.002  2.18200000e+03 
855.966  2.22700000e+03 
855.930  2.19500000e+03 
855.894  2.17700000e+03 
855.858  2.15700000e+03 
855.822  2.23100000e+03 
855.786  2.28600000e+03 
855.750  2.29300000e+03 
855.714  2.27900000e+03 
855.678  2.24400000e+03 
855.642  2.22600000e+03 
855.605  2.33500000e+03 
855.569  2.36100000e+03 
855.533  2.30500000e+03 
855.497  2.33000000e+03 
855.461  2.27400000e+03 
855.425  2.29300000e+03 
855.389  2.29500000e+03 
855.353  2.21900000e+03 
855.317  2.16800000e+03 
855.281  2.17300000e+03 
855.245  2.18400000e+03 
855.209  2.19400000e+03 
855.173  2.29400000e+03 
855.136  2.20900000e+03 
855.100  2.16400000e+03 
855.064  2.22900000e+03 
855.028  2.20700000e+03 
854.992  2.19900000e+03 
854.956  2.07400000e+03 
854.920  2.11300000e+03 
854.884  2.18700000e+03 
854.848  2.10300000e+03 
854.812  2.13200000e+03 
854.776  2.14000000e+03 
854.740  2.07200000e+03 
854.704  2.14600000e+03 
854.667  2.07000000e+03 
854.631  2.12100000e+03 
854.595  2.06200000e+03 
854.559  2.06200000e+03 
854.523  2.09300000e+03 
854.487  1.99600000e+03 
854.451  1.99500000e+03 
854.415  2.13500000e+03 
854.379  2.08400000e+03 
854.343  2.00500000e+03 
854.307  1.97800000e+03 
854.271  2.07700000e+03 
854.235  2.03800000e+03 
854.198  2.07700000e+03 
854.162  1.99900000e+03 
854.126  2.05400000e+03 
854.090  2.02100000e+03 
854.054  1.96900000e+03 
854.018  1.97200000e+03 
853.982  1.90200000e+03 
853.946  1.98700000e+03 
853.910  1.92600000e+03 
853.874  1.86000000e+03 
853.838  1.97500000e+03 
853.802  1.93600000e+03 
