EXPERIMENT FILE
Version = 2

[ Experiment Parameters ]
Experiment Description= <none> 
Number_of_Regions_in_Experiment= 1 

Original_File_name= C:\alexesca\data\0827_400W.xps 
Instrument= HP ESCA West
Date= 08-27-2012
Time=  15:08:18

[ Layer Parameters ]
Layer_Type= XPS

[ Region 1 Parameters ]
Region_Description = Au Dithered Scan Test              
BEcenter(eV) = 91.000000
BEwidth(eV) = 10.000000
BEstep(eV) = 0.035937
Dwell_Time(sec) = 1.000000
N_o_scans = 1  
N_o_Channels = 278  
Scan_mode = 0  (DITHERED)

[ L= 1 R= 1 ]
BEcenter= 91.000  
BEwidth= -9.955  
Excitation= 1486.600
Time_p_channel= 256.000 
Size= 278
95.977   1.30000000e+01 
95.941   1.10000000e+01 
95.905   1.60000000e+01 
95.870   1.30000000e+01 
95.834   1.10000000e+01 
95.798   9.00000000e+00 
95.762   1.50000000e+01 
95.726   2.10000000e+01 
95.690   1.90000000e+01 
95.654   1.10000000e+01 
95.618   1.60000000e+01 
95.582   1.90000000e+01 
95.546   1.40000000e+01 
95.510   1.40000000e+01 
95.474   1.40000000e+01 
95.438   1.40000000e+01 
95.402   1.10000000e+01 
95.366   2.40000000e+01 
95.330   1.90000000e+01 
95.295   2.40000000e+01 
95.259   1.60000000e+01 
95.223   2.10000000e+01 
95.187   2.30000000e+01 
95.151   1.50000000e+01 
95.115   2.40000000e+01 
95.079   2.40000000e+01 
95.043   2.40000000e+01 
95.007   3.30000000e+01 
94.971   1.80000000e+01 
94.935   2.30000000e+01 
94.899   3.40000000e+01 
94.863   3.30000000e+01 
94.827   2.90000000e+01 
94.791   2.70000000e+01 
94.755   3.10000000e+01 
94.720   3.00000000e+01 
94.684   2.90000000e+01 
94.648   1.90000000e+01 
94.612   2.80000000e+01 
94.576   3.50000000e+01 
94.540   4.20000000e+01 
94.504   3.30000000e+01 
94.468   3.10000000e+01 
94.432   2.90000000e+01 
94.396   3.10000000e+01 
94.360   3.10000000e+01 
94.324   3.50000000e+01 
94.288   3.80000000e+01 
94.252   4.00000000e+01 
94.216   4.40000000e+01 
94.180   3.20000000e+01 
94.145   1.70000000e+01 
94.109   1.80000000e+01 
94.073   2.50000000e+01 
94.037   2.90000000e+01 
94.001   2.90000000e+01 
93.965   3.00000000e+01 
93.929   3.10000000e+01 
93.893   2.80000000e+01 
93.857   2.30000000e+01 
93.821   3.20000000e+01 
93.785   2.90000000e+01 
93.749   1.50000000e+01 
93.713   2.30000000e+01 
93.677   3.70000000e+01 
93.641   3.00000000e+01 
93.605   2.20000000e+01 
93.570   2.40000000e+01 
93.534   1.90000000e+01 
93.498   1.50000000e+01 
93.462   2.00000000e+01 
93.426   1.30000000e+01 
93.390   1.20000000e+01 
93.354   1.50000000e+01 
93.318   2.00000000e+01 
93.282   1.00000000e+01 
93.246   1.60000000e+01 
93.210   1.10000000e+01 
93.174   7.00000000e+00 
93.138   1.30000000e+01 
93.102   1.30000000e+01 
93.066   1.00000000e+01 
93.030   1.20000000e+01 
92.995   1.20000000e+01 
92.959   1.30000000e+01 
92.923   9.00000000e+00 
92.887   9.00000000e+00 
92.851   6.00000000e+00 
92.815   9.00000000e+00 
92.779   8.00000000e+00 
92.743   1.40000000e+01 
92.707   1.10000000e+01 
92.671   1.20000000e+01 
92.635   8.00000000e+00 
92.599   1.30000000e+01 
92.563   2.10000000e+01 
92.527   1.30000000e+01 
92.491   7.00000000e+00 
92.455   6.00000000e+00 
92.420   1.20000000e+01 
92.384   8.00000000e+00 
92.348   9.00000000e+00 
92.312   1.00000000e+01 
92.276   1.30000000e+01 
92.240   1.60000000e+01 
92.204   8.00000000e+00 
92.168   8.00000000e+00 
92.132   1.20000000e+01 
92.096   1.60000000e+01 
92.060   1.00000000e+01 
92.024   1.20000000e+01 
91.988   1.10000000e+01 
91.952   1.90000000e+01 
91.916   1.30000000e+01 
91.880   1.60000000e+01 
91.845   1.20000000e+01 
91.809   2.60000000e+01 
91.773   1.90000000e+01 
91.737   1.40000000e+01 
91.701   2.40000000e+01 
91.665   1.60000000e+01 
91.629   1.80000000e+01 
91.593   1.60000000e+01 
91.557   2.60000000e+01 
91.521   1.90000000e+01 
91.485   2.20000000e+01 
91.449   2.00000000e+01 
91.413   2.20000000e+01 
91.377   3.20000000e+01 
91.341   2.80000000e+01 
91.305   3.20000000e+01 
91.270   2.90000000e+01 
91.234   3.90000000e+01 
91.198   4.00000000e+01 
91.162   3.30000000e+01 
91.126   2.60000000e+01 
91.090   4.10000000e+01 
91.054   4.00000000e+01 
91.018   3.70000000e+01 
90.982   4.50000000e+01 
90.946   4.00000000e+01 
90.910   4.30000000e+01 
90.874   3.90000000e+01 
90.838   3.40000000e+01 
90.802   3.40000000e+01 
90.766   4.20000000e+01 
90.730   3.60000000e+01 
90.695   4.00000000e+01 
90.659   4.00000000e+01 
90.623   2.60000000e+01 
90.587   3.70000000e+01 
90.551   3.10000000e+01 
90.515   2.40000000e+01 
90.479   3.80000000e+01 
90.443   3.50000000e+01 
90.407   3.00000000e+01 
90.371   4.20000000e+01 
90.335   3.20000000e+01 
90.299   3.40000000e+01 
90.263   3.20000000e+01 
90.227   3.00000000e+01 
90.191   2.90000000e+01 
90.155   3.00000000e+01 
90.120   2.50000000e+01 
90.084   3.10000000e+01 
90.048   1.80000000e+01 
90.012   1.90000000e+01 
89.976   2.20000000e+01 
89.940   2.20000000e+01 
89.904   2.10000000e+01 
89.868   1.80000000e+01 
89.832   2.00000000e+01 
89.796   1.50000000e+01 
89.760   1.20000000e+01 
89.724   1.60000000e+01 
89.688   1.80000000e+01 
89.652   1.20000000e+01 
89.616   1.10000000e+01 
89.580   1.20000000e+01 
89.545   1.00000000e+01 
89.509   1.70000000e+01 
89.473   1.10000000e+01 
89.437   3.00000000e+00 
89.401   1.30000000e+01 
89.365   8.00000000e+00 
89.329   8.00000000e+00 
89.293   8.00000000e+00 
89.257   9.00000000e+00 
89.221   1.30000000e+01 
89.185   8.00000000e+00 
89.149   1.10000000e+01 
89.113   5.00000000e+00 
89.077   5.00000000e+00 
89.041   8.00000000e+00 
89.005   4.00000000e+00 
88.970   8.00000000e+00 
88.934   8.00000000e+00 
88.898   4.00000000e+00 
88.862   3.00000000e+00 
88.826   8.00000000e+00 
88.790   8.00000000e+00 
88.754   3.00000000e+00 
88.718   4.00000000e+00 
88.682   7.00000000e+00 
88.646   8.00000000e+00 
88.610   6.00000000e+00 
88.574   5.00000000e+00 
88.538   1.00000000e+00 
88.502   2.00000000e+00 
88.466   6.00000000e+00 
88.430   3.00000000e+00 
88.395   7.00000000e+00 
88.359   2.00000000e+00 
88.323   4.00000000e+00 
88.287   9.00000000e+00 
88.251   1.00000000e+00 
88.215   3.00000000e+00 
88.179   7.00000000e+00 
88.143   7.00000000e+00 
88.107   6.00000000e+00 
88.071   2.00000000e+00 
88.035   6.00000000e+00 
87.999   5.00000000e+00 
87.963   5.00000000e+00 
87.927   3.00000000e+00 
87.891   6.00000000e+00 
87.855   4.00000000e+00 
87.820   7.00000000e+00 
87.784   9.00000000e+00 
87.748   2.00000000e+00 
87.712   1.00000000e+00 
87.676   4.00000000e+00 
87.640   4.00000000e+00 
87.604   5.00000000e+00 
87.568   4.00000000e+00 
87.532   9.00000000e+00 
87.496   4.00000000e+00 
87.460   7.00000000e+00 
87.424   5.00000000e+00 
87.388   8.00000000e+00 
87.352   5.00000000e+00 
87.316   6.00000000e+00 
87.280   0.00000000e+00 
87.245   4.00000000e+00 
87.209   3.00000000e+00 
87.173   8.00000000e+00 
87.137   6.00000000e+00 
87.101   3.00000000e+00 
87.065   5.00000000e+00 
87.029   6.00000000e+00 
86.993   2.00000000e+00 
86.957   4.00000000e+00 
86.921   4.00000000e+00 
86.885   6.00000000e+00 
86.849   9.00000000e+00 
86.813   7.00000000e+00 
86.777   3.00000000e+00 
86.741   7.00000000e+00 
86.705   5.00000000e+00 
86.670   5.00000000e+00 
86.634   4.00000000e+00 
86.598   5.00000000e+00 
86.562   1.00000000e+00 
86.526   2.00000000e+00 
86.490   2.00000000e+00 
86.454   4.00000000e+00 
86.418   5.00000000e+00 
86.382   5.00000000e+00 
86.346   3.00000000e+00 
86.310   6.00000000e+00 
86.274   5.00000000e+00 
86.238   5.00000000e+00 
86.202   5.00000000e+00 
86.166   4.00000000e+00 
86.130   5.00000000e+00 
86.095   2.00000000e+00 
86.059   3.00000000e+00 
86.023   2.00000000e+00 

