EXPERIMENT FILE
Version = 2

[ Experiment Parameters ]
Experiment Description= <none> 
Number_of_Regions_in_Experiment= 1 

Original_File_name= C:\alexesca\data\0824Au_PowSupWU_1.xps 
Instrument= HP ESCA West
Date= 08-24-2012
Time=  14:02:26

[ Layer Parameters ]
Layer_Type= XPS

[ Region 1 Parameters ]
Region_Description = Au Dithered Scan Test              
BEcenter(eV) = 91.000000
BEwidth(eV) = 10.000000
BEstep(eV) = 0.035937
Dwell_Time(sec) = 1.000000
N_o_scans = 1  
N_o_Channels = 278  
Scan_mode = 0  (DITHERED)

[ L= 1 R= 1 ]
BEcenter= 91.000  
BEwidth= -9.955  
Excitation= 1486.600
Time_p_channel= 256.000 
Size= 278
95.977   1.40000000e+01 
95.941   1.10000000e+01 
95.905   5.00000000e+00 
95.870   5.00000000e+00 
95.834   1.20000000e+01 
95.798   1.60000000e+01 
95.762   8.00000000e+00 
95.726   1.50000000e+01 
95.690   9.00000000e+00 
95.654   1.10000000e+01 
95.618   9.00000000e+00 
95.582   1.00000000e+01 
95.546   1.80000000e+01 
95.510   1.30000000e+01 
95.474   1.50000000e+01 
95.438   1.50000000e+01 
95.402   9.00000000e+00 
95.366   7.00000000e+00 
95.330   1.10000000e+01 
95.295   9.00000000e+00 
95.259   1.20000000e+01 
95.223   1.20000000e+01 
95.187   1.00000000e+01 
95.151   1.30000000e+01 
95.115   1.20000000e+01 
95.079   1.10000000e+01 
95.043   1.30000000e+01 
95.007   1.90000000e+01 
94.971   1.30000000e+01 
94.935   1.80000000e+01 
94.899   1.70000000e+01 
94.863   1.50000000e+01 
94.827   1.40000000e+01 
94.791   1.70000000e+01 
94.755   1.80000000e+01 
94.720   1.80000000e+01 
94.684   1.50000000e+01 
94.648   1.20000000e+01 
94.612   1.30000000e+01 
94.576   2.00000000e+01 
94.540   1.70000000e+01 
94.504   1.90000000e+01 
94.468   1.60000000e+01 
94.432   3.50000000e+01 
94.396   2.20000000e+01 
94.360   1.90000000e+01 
94.324   2.70000000e+01 
94.288   1.80000000e+01 
94.252   1.90000000e+01 
94.216   2.80000000e+01 
94.180   1.90000000e+01 
94.145   2.00000000e+01 
94.109   2.10000000e+01 
94.073   3.20000000e+01 
94.037   2.70000000e+01 
94.001   3.00000000e+01 
93.965   2.90000000e+01 
93.929   3.40000000e+01 
93.893   3.20000000e+01 
93.857   3.20000000e+01 
93.821   3.30000000e+01 
93.785   3.40000000e+01 
93.749   3.90000000e+01 
93.713   3.10000000e+01 
93.677   3.80000000e+01 
93.641   2.80000000e+01 
93.605   4.30000000e+01 
93.570   2.40000000e+01 
93.534   3.60000000e+01 
93.498   2.80000000e+01 
93.462   2.70000000e+01 
93.426   3.70000000e+01 
93.390   2.60000000e+01 
93.354   3.00000000e+01 
93.318   2.90000000e+01 
93.282   2.40000000e+01 
93.246   2.80000000e+01 
93.210   2.70000000e+01 
93.174   2.20000000e+01 
93.138   2.70000000e+01 
93.102   2.00000000e+01 
93.066   2.40000000e+01 
93.030   2.50000000e+01 
92.995   2.60000000e+01 
92.959   2.00000000e+01 
92.923   1.90000000e+01 
92.887   2.50000000e+01 
92.851   2.00000000e+01 
92.815   1.80000000e+01 
92.779   1.60000000e+01 
92.743   2.50000000e+01 
92.707   1.80000000e+01 
92.671   1.70000000e+01 
92.635   1.50000000e+01 
92.599   1.60000000e+01 
92.563   1.50000000e+01 
92.527   2.10000000e+01 
92.491   1.50000000e+01 
92.455   1.20000000e+01 
92.420   8.00000000e+00 
92.384   7.00000000e+00 
92.348   6.00000000e+00 
92.312   1.40000000e+01 
92.276   1.10000000e+01 
92.240   2.00000000e+00 
92.204   1.60000000e+01 
92.168   8.00000000e+00 
92.132   1.00000000e+01 
92.096   1.00000000e+01 
92.060   7.00000000e+00 
92.024   1.10000000e+01 
91.988   8.00000000e+00 
91.952   1.60000000e+01 
91.916   8.00000000e+00 
91.880   1.40000000e+01 
91.845   1.00000000e+01 
91.809   1.40000000e+01 
91.773   3.00000000e+00 
91.737   1.50000000e+01 
91.701   3.00000000e+00 
91.665   1.20000000e+01 
91.629   8.00000000e+00 
91.593   1.50000000e+01 
91.557   8.00000000e+00 
91.521   6.00000000e+00 
91.485   1.50000000e+01 
91.449   8.00000000e+00 
91.413   9.00000000e+00 
91.377   1.20000000e+01 
91.341   1.30000000e+01 
91.305   9.00000000e+00 
91.270   7.00000000e+00 
91.234   1.20000000e+01 
91.198   1.40000000e+01 
91.162   8.00000000e+00 
91.126   1.30000000e+01 
91.090   2.60000000e+01 
91.054   9.00000000e+00 
91.018   1.30000000e+01 
90.982   1.10000000e+01 
90.946   1.20000000e+01 
90.910   2.10000000e+01 
90.874   2.00000000e+01 
90.838   1.00000000e+01 
90.802   1.80000000e+01 
90.766   1.70000000e+01 
90.730   1.60000000e+01 
90.695   2.10000000e+01 
90.659   2.90000000e+01 
90.623   2.20000000e+01 
90.587   1.70000000e+01 
90.551   2.80000000e+01 
90.515   2.20000000e+01 
90.479   3.40000000e+01 
90.443   2.60000000e+01 
90.407   2.20000000e+01 
90.371   3.50000000e+01 
90.335   2.70000000e+01 
90.299   2.70000000e+01 
90.263   4.20000000e+01 
90.227   3.20000000e+01 
90.191   3.20000000e+01 
90.155   3.30000000e+01 
90.120   3.80000000e+01 
90.084   2.70000000e+01 
90.048   3.10000000e+01 
90.012   4.40000000e+01 
89.976   4.10000000e+01 
89.940   3.50000000e+01 
89.904   3.30000000e+01 
89.868   3.00000000e+01 
89.832   4.40000000e+01 
89.796   3.30000000e+01 
89.760   4.30000000e+01 
89.724   4.30000000e+01 
89.688   3.70000000e+01 
89.652   2.90000000e+01 
89.616   3.10000000e+01 
89.580   2.60000000e+01 
89.545   3.30000000e+01 
89.509   2.40000000e+01 
89.473   3.30000000e+01 
89.437   2.70000000e+01 
89.401   2.90000000e+01 
89.365   2.80000000e+01 
89.329   3.80000000e+01 
89.293   2.90000000e+01 
89.257   2.50000000e+01 
89.221   2.50000000e+01 
89.185   2.70000000e+01 
89.149   2.80000000e+01 
89.113   1.70000000e+01 
89.077   2.30000000e+01 
89.041   3.10000000e+01 
89.005   2.20000000e+01 
88.970   1.60000000e+01 
88.934   1.50000000e+01 
88.898   1.90000000e+01 
88.862   2.00000000e+01 
88.826   1.20000000e+01 
88.790   1.00000000e+01 
88.754   1.10000000e+01 
88.718   1.20000000e+01 
88.682   1.00000000e+01 
88.646   9.00000000e+00 
88.610   1.00000000e+01 
88.574   1.20000000e+01 
88.538   5.00000000e+00 
88.502   1.50000000e+01 
88.466   4.00000000e+00 
88.430   1.00000000e+01 
88.395   5.00000000e+00 
88.359   7.00000000e+00 
88.323   4.00000000e+00 
88.287   6.00000000e+00 
88.251   3.00000000e+00 
88.215   8.00000000e+00 
88.179   2.00000000e+00 
88.143   5.00000000e+00 
88.107   4.00000000e+00 
88.071   7.00000000e+00 
88.035   7.00000000e+00 
87.999   5.00000000e+00 
87.963   5.00000000e+00 
87.927   4.00000000e+00 
87.891   5.00000000e+00 
87.855   4.00000000e+00 
87.820   3.00000000e+00 
87.784   3.00000000e+00 
87.748   5.00000000e+00 
87.712   4.00000000e+00 
87.676   2.00000000e+00 
87.640   4.00000000e+00 
87.604   2.00000000e+00 
87.568   4.00000000e+00 
87.532   6.00000000e+00 
87.496   6.00000000e+00 
87.460   3.00000000e+00 
87.424   4.00000000e+00 
87.388   7.00000000e+00 
87.352   2.00000000e+00 
87.316   5.00000000e+00 
87.280   7.00000000e+00 
87.245   3.00000000e+00 
87.209   2.00000000e+00 
87.173   4.00000000e+00 
87.137   5.00000000e+00 
87.101   6.00000000e+00 
87.065   1.00000000e+00 
87.029   2.00000000e+00 
86.993   4.00000000e+00 
86.957   3.00000000e+00 
86.921   2.00000000e+00 
86.885   7.00000000e+00 
86.849   7.00000000e+00 
86.813   2.00000000e+00 
86.777   1.00000000e+00 
86.741   4.00000000e+00 
86.705   5.00000000e+00 
86.670   4.00000000e+00 
86.634   1.00000000e+00 
86.598   6.00000000e+00 
86.562   6.00000000e+00 
86.526   5.00000000e+00 
86.490   6.00000000e+00 
86.454   4.00000000e+00 
86.418   5.00000000e+00 
86.382   6.00000000e+00 
86.346   5.00000000e+00 
86.310   8.00000000e+00 
86.274   3.00000000e+00 
86.238   4.00000000e+00 
86.202   6.00000000e+00 
86.166   3.00000000e+00 
86.130   8.00000000e+00 
86.095   4.00000000e+00 
86.059   6.00000000e+00 
86.023   4.00000000e+00 

