EXPERIMENT FILE
Version = 2

[ Experiment Parameters ]
Experiment Description= <none> 
Number_of_Regions_in_Experiment= 1 

Original_File_name= C:\alexesca\data\0827_400W_36Deg.xps 
Instrument= HP ESCA West
Date= 08-28-2012
Time=  12:21:34

[ Layer Parameters ]
Layer_Type= XPS

[ Region 1 Parameters ]
Region_Description = Au Dithered Scan Test              
BEcenter(eV) = 91.000000
BEwidth(eV) = 10.000000
BEstep(eV) = 0.035937
Dwell_Time(sec) = 1.000000
N_o_scans = 1  
N_o_Channels = 278  
Scan_mode = 0  (DITHERED)

[ L= 1 R= 1 ]
BEcenter= 91.000  
BEwidth= -9.955  
Excitation= 1486.600
Time_p_channel= 256.000 
Size= 278
95.977   3.12000000e+02 
95.941   3.01000000e+02 
95.905   3.53000000e+02 
95.870   3.51000000e+02 
95.834   3.62000000e+02 
95.798   3.65000000e+02 
95.762   3.77000000e+02 
95.726   3.73000000e+02 
95.690   4.12000000e+02 
95.654   3.72000000e+02 
95.618   4.15000000e+02 
95.582   4.33000000e+02 
95.546   4.52000000e+02 
95.510   4.16000000e+02 
95.474   4.56000000e+02 
95.438   4.67000000e+02 
95.402   4.84000000e+02 
95.366   4.91000000e+02 
95.330   5.05000000e+02 
95.295   5.30000000e+02 
95.259   5.18000000e+02 
95.223   6.05000000e+02 
95.187   5.87000000e+02 
95.151   6.04000000e+02 
95.115   6.27000000e+02 
95.079   6.40000000e+02 
95.043   6.76000000e+02 
95.007   7.01000000e+02 
94.971   7.21000000e+02 
94.935   8.01000000e+02 
94.899   8.31000000e+02 
94.863   8.96000000e+02 
94.827   8.84000000e+02 
94.791   9.36000000e+02 
94.755   9.86000000e+02 
94.720   9.29000000e+02 
94.684   1.02100000e+03 
94.648   1.11200000e+03 
94.612   1.14500000e+03 
94.576   1.11800000e+03 
94.540   1.12700000e+03 
94.504   1.21500000e+03 
94.468   1.33100000e+03 
94.432   1.28800000e+03 
94.396   1.27400000e+03 
94.360   1.34800000e+03 
94.324   1.40500000e+03 
94.288   1.37400000e+03 
94.252   1.45800000e+03 
94.216   1.44900000e+03 
94.180   1.37900000e+03 
94.145   1.37000000e+03 
94.109   1.27100000e+03 
94.073   1.36100000e+03 
94.037   1.20300000e+03 
94.001   1.21500000e+03 
93.965   1.17400000e+03 
93.929   1.11800000e+03 
93.893   1.06500000e+03 
93.857   9.99000000e+02 
93.821   9.08000000e+02 
93.785   8.99000000e+02 
93.749   7.69000000e+02 
93.713   7.59000000e+02 
93.677   6.99000000e+02 
93.641   6.25000000e+02 
93.605   6.20000000e+02 
93.570   5.61000000e+02 
93.534   5.32000000e+02 
93.498   5.01000000e+02 
93.462   4.47000000e+02 
93.426   4.14000000e+02 
93.390   3.90000000e+02 
93.354   4.06000000e+02 
93.318   3.58000000e+02 
93.282   3.50000000e+02 
93.246   3.77000000e+02 
93.210   3.47000000e+02 
93.174   3.37000000e+02 
93.138   3.11000000e+02 
93.102   3.14000000e+02 
93.066   3.00000000e+02 
93.030   2.99000000e+02 
92.995   3.04000000e+02 
92.959   2.84000000e+02 
92.923   2.93000000e+02 
92.887   2.68000000e+02 
92.851   2.76000000e+02 
92.815   2.49000000e+02 
92.779   2.90000000e+02 
92.743   2.73000000e+02 
92.707   2.79000000e+02 
92.671   2.89000000e+02 
92.635   3.15000000e+02 
92.599   2.80000000e+02 
92.563   2.82000000e+02 
92.527   2.88000000e+02 
92.491   3.09000000e+02 
92.455   3.10000000e+02 
92.420   2.89000000e+02 
92.384   2.97000000e+02 
92.348   3.22000000e+02 
92.312   3.30000000e+02 
92.276   3.36000000e+02 
92.240   3.43000000e+02 
92.204   3.39000000e+02 
92.168   3.41000000e+02 
92.132   3.43000000e+02 
92.096   3.58000000e+02 
92.060   3.13000000e+02 
92.024   3.81000000e+02 
91.988   3.88000000e+02 
91.952   4.05000000e+02 
91.916   3.98000000e+02 
91.880   4.41000000e+02 
91.845   4.56000000e+02 
91.809   4.90000000e+02 
91.773   4.92000000e+02 
91.737   5.14000000e+02 
91.701   5.58000000e+02 
91.665   5.25000000e+02 
91.629   5.99000000e+02 
91.593   5.90000000e+02 
91.557   6.69000000e+02 
91.521   6.85000000e+02 
91.485   6.98000000e+02 
91.449   7.58000000e+02 
91.413   7.39000000e+02 
91.377   8.31000000e+02 
91.341   7.92000000e+02 
91.305   9.40000000e+02 
91.270   9.41000000e+02 
91.234   1.00900000e+03 
91.198   1.01200000e+03 
91.162   1.05100000e+03 
91.126   1.11400000e+03 
91.090   1.12500000e+03 
91.054   1.17400000e+03 
91.018   1.24200000e+03 
90.982   1.35200000e+03 
90.946   1.32400000e+03 
90.910   1.36500000e+03 
90.874   1.45500000e+03 
90.838   1.46500000e+03 
90.802   1.42200000e+03 
90.766   1.46700000e+03 
90.730   1.47700000e+03 
90.695   1.59200000e+03 
90.659   1.60900000e+03 
90.623   1.62200000e+03 
90.587   1.70700000e+03 
90.551   1.63600000e+03 
90.515   1.63800000e+03 
90.479   1.56100000e+03 
90.443   1.58700000e+03 
90.407   1.56900000e+03 
90.371   1.38600000e+03 
90.335   1.38400000e+03 
90.299   1.27800000e+03 
90.263   1.21600000e+03 
90.227   1.07200000e+03 
90.191   1.08800000e+03 
90.155   9.68000000e+02 
90.120   9.14000000e+02 
90.084   7.59000000e+02 
90.048   7.48000000e+02 
90.012   6.81000000e+02 
89.976   5.71000000e+02 
89.940   5.69000000e+02 
89.904   5.16000000e+02 
89.868   4.73000000e+02 
89.832   4.16000000e+02 
89.796   3.63000000e+02 
89.760   3.38000000e+02 
89.724   3.35000000e+02 
89.688   3.06000000e+02 
89.652   2.96000000e+02 
89.616   2.55000000e+02 
89.580   2.58000000e+02 
89.545   2.27000000e+02 
89.509   2.17000000e+02 
89.473   2.19000000e+02 
89.437   2.03000000e+02 
89.401   1.84000000e+02 
89.365   1.83000000e+02 
89.329   2.01000000e+02 
89.293   1.76000000e+02 
89.257   1.53000000e+02 
89.221   1.70000000e+02 
89.185   1.56000000e+02 
89.149   1.52000000e+02 
89.113   1.78000000e+02 
89.077   1.54000000e+02 
89.041   1.42000000e+02 
89.005   1.32000000e+02 
88.970   1.46000000e+02 
88.934   1.36000000e+02 
88.898   1.41000000e+02 
88.862   1.23000000e+02 
88.826   1.45000000e+02 
88.790   1.35000000e+02 
88.754   1.25000000e+02 
88.718   1.18000000e+02 
88.682   1.55000000e+02 
88.646   1.26000000e+02 
88.610   1.06000000e+02 
88.574   1.20000000e+02 
88.538   1.12000000e+02 
88.502   1.27000000e+02 
88.466   1.32000000e+02 
88.430   8.60000000e+01 
88.395   1.25000000e+02 
88.359   1.16000000e+02 
88.323   1.19000000e+02 
88.287   1.11000000e+02 
88.251   1.05000000e+02 
88.215   1.23000000e+02 
88.179   1.09000000e+02 
88.143   1.02000000e+02 
88.107   1.13000000e+02 
88.071   1.04000000e+02 
88.035   1.09000000e+02 
87.999   1.08000000e+02 
87.963   1.02000000e+02 
87.927   1.06000000e+02 
87.891   9.30000000e+01 
87.855   1.15000000e+02 
87.820   9.30000000e+01 
87.784   1.05000000e+02 
87.748   8.80000000e+01 
87.712   9.70000000e+01 
87.676   8.40000000e+01 
87.640   1.13000000e+02 
87.604   1.15000000e+02 
87.568   1.06000000e+02 
87.532   1.01000000e+02 
87.496   1.06000000e+02 
87.460   1.13000000e+02 
87.424   1.05000000e+02 
87.388   1.00000000e+02 
87.352   1.04000000e+02 
87.316   1.17000000e+02 
87.280   9.40000000e+01 
87.245   9.10000000e+01 
87.209   7.90000000e+01 
87.173   8.50000000e+01 
87.137   1.17000000e+02 
87.101   9.60000000e+01 
87.065   9.60000000e+01 
87.029   9.80000000e+01 
86.993   1.05000000e+02 
86.957   1.03000000e+02 
86.921   9.00000000e+01 
86.885   9.50000000e+01 
86.849   9.20000000e+01 
86.813   1.04000000e+02 
86.777   8.60000000e+01 
86.741   9.50000000e+01 
86.705   8.30000000e+01 
86.670   9.60000000e+01 
86.634   1.10000000e+02 
86.598   1.06000000e+02 
86.562   1.11000000e+02 
86.526   8.20000000e+01 
86.490   9.70000000e+01 
86.454   1.07000000e+02 
86.418   1.02000000e+02 
86.382   1.04000000e+02 
86.346   7.90000000e+01 
86.310   1.06000000e+02 
86.274   1.01000000e+02 
86.238   9.70000000e+01 
86.202   1.09000000e+02 
86.166   9.50000000e+01 
86.130   1.03000000e+02 
86.095   7.10000000e+01 
86.059   7.40000000e+01 
86.023   9.50000000e+01 

