EXPERIMENT FILE
Version = 2

[ Experiment Parameters ]
Experiment Description= <none> 
Number_of_Regions_in_Experiment= 1 

Original_File_name= C:\alexesca\data\0827_400W_33Deg.xps 
Instrument= HP ESCA West
Date= 08-28-2012
Time=  11:30:01

[ Layer Parameters ]
Layer_Type= XPS

[ Region 1 Parameters ]
Region_Description = Au Dithered Scan Test              
BEcenter(eV) = 91.000000
BEwidth(eV) = 10.000000
BEstep(eV) = 0.035937
Dwell_Time(sec) = 1.000000
N_o_scans = 1  
N_o_Channels = 278  
Scan_mode = 0  (DITHERED)

[ L= 1 R= 1 ]
BEcenter= 91.000  
BEwidth= -9.955  
Excitation= 1486.600
Time_p_channel= 256.000 
Size= 278
95.977   1.23000000e+02 
95.941   1.36000000e+02 
95.905   1.41000000e+02 
95.870   1.46000000e+02 
95.834   1.21000000e+02 
95.798   1.13000000e+02 
95.762   1.33000000e+02 
95.726   1.53000000e+02 
95.690   1.53000000e+02 
95.654   1.51000000e+02 
95.618   1.37000000e+02 
95.582   1.54000000e+02 
95.546   1.24000000e+02 
95.510   1.69000000e+02 
95.474   1.48000000e+02 
95.438   1.58000000e+02 
95.402   1.42000000e+02 
95.366   1.91000000e+02 
95.330   1.76000000e+02 
95.295   1.95000000e+02 
95.259   1.88000000e+02 
95.223   1.82000000e+02 
95.187   2.10000000e+02 
95.151   1.89000000e+02 
95.115   2.05000000e+02 
95.079   2.46000000e+02 
95.043   2.27000000e+02 
95.007   2.29000000e+02 
94.971   2.26000000e+02 
94.935   2.57000000e+02 
94.899   2.83000000e+02 
94.863   2.67000000e+02 
94.827   3.20000000e+02 
94.791   3.03000000e+02 
94.755   3.24000000e+02 
94.720   3.17000000e+02 
94.684   3.49000000e+02 
94.648   3.40000000e+02 
94.612   3.86000000e+02 
94.576   4.04000000e+02 
94.540   4.03000000e+02 
94.504   4.37000000e+02 
94.468   4.38000000e+02 
94.432   4.73000000e+02 
94.396   4.71000000e+02 
94.360   5.18000000e+02 
94.324   4.93000000e+02 
94.288   4.96000000e+02 
94.252   5.36000000e+02 
94.216   5.68000000e+02 
94.180   5.92000000e+02 
94.145   6.07000000e+02 
94.109   6.11000000e+02 
94.073   6.23000000e+02 
94.037   6.43000000e+02 
94.001   6.41000000e+02 
93.965   6.61000000e+02 
93.929   6.32000000e+02 
93.893   6.22000000e+02 
93.857   5.87000000e+02 
93.821   5.65000000e+02 
93.785   6.29000000e+02 
93.749   5.81000000e+02 
93.713   5.00000000e+02 
93.677   4.98000000e+02 
93.641   4.75000000e+02 
93.605   3.93000000e+02 
93.570   3.99000000e+02 
93.534   3.67000000e+02 
93.498   3.24000000e+02 
93.462   3.02000000e+02 
93.426   2.89000000e+02 
93.390   2.69000000e+02 
93.354   2.38000000e+02 
93.318   2.14000000e+02 
93.282   2.19000000e+02 
93.246   2.20000000e+02 
93.210   1.78000000e+02 
93.174   1.75000000e+02 
93.138   1.82000000e+02 
93.102   1.72000000e+02 
93.066   1.31000000e+02 
93.030   1.44000000e+02 
92.995   1.35000000e+02 
92.959   1.45000000e+02 
92.923   1.37000000e+02 
92.887   1.44000000e+02 
92.851   1.26000000e+02 
92.815   1.21000000e+02 
92.779   1.34000000e+02 
92.743   1.37000000e+02 
92.707   1.28000000e+02 
92.671   1.34000000e+02 
92.635   1.14000000e+02 
92.599   1.19000000e+02 
92.563   1.14000000e+02 
92.527   9.80000000e+01 
92.491   1.39000000e+02 
92.455   1.22000000e+02 
92.420   1.29000000e+02 
92.384   1.43000000e+02 
92.348   1.34000000e+02 
92.312   1.12000000e+02 
92.276   1.29000000e+02 
92.240   1.27000000e+02 
92.204   9.90000000e+01 
92.168   1.33000000e+02 
92.132   1.20000000e+02 
92.096   1.41000000e+02 
92.060   1.13000000e+02 
92.024   1.29000000e+02 
91.988   1.26000000e+02 
91.952   1.32000000e+02 
91.916   1.45000000e+02 
91.880   1.54000000e+02 
91.845   1.54000000e+02 
91.809   1.68000000e+02 
91.773   1.63000000e+02 
91.737   1.78000000e+02 
91.701   1.80000000e+02 
91.665   1.79000000e+02 
91.629   1.89000000e+02 
91.593   2.07000000e+02 
91.557   2.01000000e+02 
91.521   2.35000000e+02 
91.485   2.05000000e+02 
91.449   2.34000000e+02 
91.413   2.41000000e+02 
91.377   2.58000000e+02 
91.341   2.39000000e+02 
91.305   3.11000000e+02 
91.270   2.87000000e+02 
91.234   2.80000000e+02 
91.198   2.76000000e+02 
91.162   3.24000000e+02 
91.126   3.65000000e+02 
91.090   3.40000000e+02 
91.054   3.71000000e+02 
91.018   3.80000000e+02 
90.982   3.85000000e+02 
90.946   4.21000000e+02 
90.910   4.47000000e+02 
90.874   4.63000000e+02 
90.838   4.95000000e+02 
90.802   5.03000000e+02 
90.766   5.25000000e+02 
90.730   5.24000000e+02 
90.695   5.95000000e+02 
90.659   6.25000000e+02 
90.623   6.56000000e+02 
90.587   6.49000000e+02 
90.551   6.92000000e+02 
90.515   6.62000000e+02 
90.479   7.02000000e+02 
90.443   7.68000000e+02 
90.407   7.32000000e+02 
90.371   7.27000000e+02 
90.335   7.77000000e+02 
90.299   7.65000000e+02 
90.263   6.99000000e+02 
90.227   7.34000000e+02 
90.191   7.75000000e+02 
90.155   7.02000000e+02 
90.120   6.74000000e+02 
90.084   6.28000000e+02 
90.048   5.85000000e+02 
90.012   5.81000000e+02 
89.976   5.48000000e+02 
89.940   5.15000000e+02 
89.904   4.52000000e+02 
89.868   4.12000000e+02 
89.832   3.77000000e+02 
89.796   3.44000000e+02 
89.760   3.07000000e+02 
89.724   2.70000000e+02 
89.688   2.36000000e+02 
89.652   2.37000000e+02 
89.616   2.08000000e+02 
89.580   2.18000000e+02 
89.545   1.79000000e+02 
89.509   1.43000000e+02 
89.473   1.46000000e+02 
89.437   1.52000000e+02 
89.401   1.18000000e+02 
89.365   1.12000000e+02 
89.329   1.12000000e+02 
89.293   1.04000000e+02 
89.257   1.02000000e+02 
89.221   1.00000000e+02 
89.185   8.70000000e+01 
89.149   8.20000000e+01 
89.113   9.40000000e+01 
89.077   9.00000000e+01 
89.041   8.30000000e+01 
89.005   7.60000000e+01 
88.970   7.20000000e+01 
88.934   8.30000000e+01 
88.898   8.30000000e+01 
88.862   7.70000000e+01 
88.826   6.40000000e+01 
88.790   6.90000000e+01 
88.754   6.80000000e+01 
88.718   6.40000000e+01 
88.682   6.10000000e+01 
88.646   5.90000000e+01 
88.610   6.10000000e+01 
88.574   6.50000000e+01 
88.538   6.20000000e+01 
88.502   7.10000000e+01 
88.466   6.20000000e+01 
88.430   6.00000000e+01 
88.395   5.70000000e+01 
88.359   5.10000000e+01 
88.323   5.90000000e+01 
88.287   5.70000000e+01 
88.251   6.60000000e+01 
88.215   4.70000000e+01 
88.179   4.40000000e+01 
88.143   5.10000000e+01 
88.107   4.80000000e+01 
88.071   5.60000000e+01 
88.035   5.30000000e+01 
87.999   5.20000000e+01 
87.963   6.00000000e+01 
87.927   4.70000000e+01 
87.891   5.80000000e+01 
87.855   4.90000000e+01 
87.820   4.80000000e+01 
87.784   4.60000000e+01 
87.748   4.70000000e+01 
87.712   5.20000000e+01 
87.676   6.30000000e+01 
87.640   5.10000000e+01 
87.604   5.00000000e+01 
87.568   5.20000000e+01 
87.532   5.00000000e+01 
87.496   3.60000000e+01 
87.460   5.20000000e+01 
87.424   5.30000000e+01 
87.388   4.90000000e+01 
87.352   5.70000000e+01 
87.316   5.00000000e+01 
87.280   4.40000000e+01 
87.245   3.30000000e+01 
87.209   3.90000000e+01 
87.173   3.90000000e+01 
87.137   4.50000000e+01 
87.101   4.80000000e+01 
87.065   4.30000000e+01 
87.029   6.10000000e+01 
86.993   5.50000000e+01 
86.957   4.70000000e+01 
86.921   4.20000000e+01 
86.885   5.40000000e+01 
86.849   4.20000000e+01 
86.813   4.50000000e+01 
86.777   3.90000000e+01 
86.741   6.40000000e+01 
86.705   4.30000000e+01 
86.670   5.00000000e+01 
86.634   4.40000000e+01 
86.598   5.40000000e+01 
86.562   4.00000000e+01 
86.526   4.70000000e+01 
86.490   4.30000000e+01 
86.454   4.90000000e+01 
86.418   4.40000000e+01 
86.382   5.40000000e+01 
86.346   3.90000000e+01 
86.310   5.10000000e+01 
86.274   4.30000000e+01 
86.238   5.00000000e+01 
86.202   3.20000000e+01 
86.166   4.40000000e+01 
86.130   5.20000000e+01 
86.095   4.30000000e+01 
86.059   5.20000000e+01 
86.023   4.30000000e+01 

