EXPERIMENT FILE
Version = 2

[ Experiment Parameters ]
Experiment Description= <none> 
Number_of_Regions_in_Experiment= 1 

Original_File_name= C:\alexesca\data\0905AuLineTest.xps 
Instrument= HP ESCA West
Date= 09-05-2012
Time=  08:58:45

[ Layer Parameters ]
Layer_Type= XPS

[ Region 1 Parameters ]
Region_Description = Au Dithered Scan Test              
BEcenter(eV) = 91.000000
BEwidth(eV) = 10.000000
BEstep(eV) = 0.035937
Dwell_Time(sec) = 1.000000
N_o_scans = 1  
N_o_Channels = 278  
Scan_mode = 0  (DITHERED)

[ L= 1 R= 1 ]
BEcenter= 91.000  
BEwidth= -9.955  
Excitation= 1486.600
Time_p_channel= 256.000 
Size= 278
95.977   1.01000000e+02 
95.941   1.04000000e+02 
95.905   1.08000000e+02 
95.870   1.14000000e+02 
95.834   1.03000000e+02 
95.798   1.12000000e+02 
95.762   1.09000000e+02 
95.726   1.25000000e+02 
95.690   1.08000000e+02 
95.654   1.21000000e+02 
95.618   1.66000000e+02 
95.582   1.45000000e+02 
95.546   1.25000000e+02 
95.510   1.30000000e+02 
95.474   1.48000000e+02 
95.438   1.59000000e+02 
95.402   1.76000000e+02 
95.366   1.67000000e+02 
95.330   1.71000000e+02 
95.295   2.02000000e+02 
95.259   1.94000000e+02 
95.223   2.23000000e+02 
95.187   2.22000000e+02 
95.151   2.10000000e+02 
95.115   2.22000000e+02 
95.079   2.35000000e+02 
95.043   2.71000000e+02 
95.007   2.49000000e+02 
94.971   2.37000000e+02 
94.935   2.56000000e+02 
94.899   2.63000000e+02 
94.863   2.56000000e+02 
94.827   2.50000000e+02 
94.791   2.79000000e+02 
94.755   3.02000000e+02 
94.720   2.85000000e+02 
94.684   2.68000000e+02 
94.648   2.71000000e+02 
94.612   3.05000000e+02 
94.576   3.23000000e+02 
94.540   2.98000000e+02 
94.504   2.84000000e+02 
94.468   3.00000000e+02 
94.432   3.14000000e+02 
94.396   2.96000000e+02 
94.360   2.85000000e+02 
94.324   2.72000000e+02 
94.288   2.68000000e+02 
94.252   3.03000000e+02 
94.216   3.03000000e+02 
94.180   2.46000000e+02 
94.145   2.43000000e+02 
94.109   2.41000000e+02 
94.073   2.53000000e+02 
94.037   2.56000000e+02 
94.001   2.54000000e+02 
93.965   2.14000000e+02 
93.929   2.25000000e+02 
93.893   1.96000000e+02 
93.857   1.88000000e+02 
93.821   1.82000000e+02 
93.785   1.78000000e+02 
93.749   1.64000000e+02 
93.713   1.69000000e+02 
93.677   1.64000000e+02 
93.641   1.35000000e+02 
93.605   1.38000000e+02 
93.570   1.42000000e+02 
93.534   1.15000000e+02 
93.498   1.26000000e+02 
93.462   8.70000000e+01 
93.426   1.02000000e+02 
93.390   9.70000000e+01 
93.354   1.02000000e+02 
93.318   9.10000000e+01 
93.282   8.70000000e+01 
93.246   7.50000000e+01 
93.210   7.00000000e+01 
93.174   7.40000000e+01 
93.138   8.00000000e+01 
93.102   8.50000000e+01 
93.066   8.40000000e+01 
93.030   7.60000000e+01 
92.995   7.10000000e+01 
92.959   7.50000000e+01 
92.923   6.70000000e+01 
92.887   5.90000000e+01 
92.851   6.80000000e+01 
92.815   7.80000000e+01 
92.779   8.20000000e+01 
92.743   9.00000000e+01 
92.707   8.10000000e+01 
92.671   9.00000000e+01 
92.635   8.90000000e+01 
92.599   6.70000000e+01 
92.563   7.40000000e+01 
92.527   9.00000000e+01 
92.491   1.01000000e+02 
92.455   9.40000000e+01 
92.420   8.80000000e+01 
92.384   1.00000000e+02 
92.348   8.50000000e+01 
92.312   9.60000000e+01 
92.276   8.40000000e+01 
92.240   1.09000000e+02 
92.204   1.06000000e+02 
92.168   1.51000000e+02 
92.132   1.20000000e+02 
92.096   1.14000000e+02 
92.060   1.01000000e+02 
92.024   1.28000000e+02 
91.988   1.33000000e+02 
91.952   1.34000000e+02 
91.916   1.53000000e+02 
91.880   1.55000000e+02 
91.845   1.86000000e+02 
91.809   1.58000000e+02 
91.773   1.34000000e+02 
91.737   1.63000000e+02 
91.701   1.99000000e+02 
91.665   1.93000000e+02 
91.629   2.11000000e+02 
91.593   2.25000000e+02 
91.557   2.07000000e+02 
91.521   2.19000000e+02 
91.485   2.43000000e+02 
91.449   2.44000000e+02 
91.413   2.64000000e+02 
91.377   2.49000000e+02 
91.341   2.92000000e+02 
91.305   2.51000000e+02 
91.270   2.98000000e+02 
91.234   3.25000000e+02 
91.198   3.30000000e+02 
91.162   3.01000000e+02 
91.126   3.15000000e+02 
91.090   3.15000000e+02 
91.054   3.02000000e+02 
91.018   3.17000000e+02 
90.982   3.38000000e+02 
90.946   3.53000000e+02 
90.910   3.56000000e+02 
90.874   3.61000000e+02 
90.838   3.13000000e+02 
90.802   3.63000000e+02 
90.766   3.21000000e+02 
90.730   3.72000000e+02 
90.695   3.06000000e+02 
90.659   3.12000000e+02 
90.623   3.09000000e+02 
90.587   3.30000000e+02 
90.551   3.28000000e+02 
90.515   3.15000000e+02 
90.479   3.32000000e+02 
90.443   2.86000000e+02 
90.407   2.82000000e+02 
90.371   2.86000000e+02 
90.335   2.46000000e+02 
90.299   2.68000000e+02 
90.263   2.40000000e+02 
90.227   2.11000000e+02 
90.191   2.08000000e+02 
90.155   1.94000000e+02 
90.120   1.98000000e+02 
90.084   1.84000000e+02 
90.048   1.46000000e+02 
90.012   1.48000000e+02 
89.976   1.65000000e+02 
89.940   1.27000000e+02 
89.904   1.23000000e+02 
89.868   1.15000000e+02 
89.832   9.10000000e+01 
89.796   9.00000000e+01 
89.760   7.40000000e+01 
89.724   9.50000000e+01 
89.688   7.40000000e+01 
89.652   6.60000000e+01 
89.616   6.40000000e+01 
89.580   6.00000000e+01 
89.545   4.20000000e+01 
89.509   5.50000000e+01 
89.473   5.20000000e+01 
89.437   4.90000000e+01 
89.401   5.20000000e+01 
89.365   4.90000000e+01 
89.329   4.10000000e+01 
89.293   4.80000000e+01 
89.257   2.80000000e+01 
89.221   4.70000000e+01 
89.185   3.70000000e+01 
89.149   4.50000000e+01 
89.113   3.80000000e+01 
89.077   3.90000000e+01 
89.041   3.10000000e+01 
89.005   3.30000000e+01 
88.970   3.90000000e+01 
88.934   3.50000000e+01 
88.898   3.40000000e+01 
88.862   4.60000000e+01 
88.826   3.50000000e+01 
88.790   3.70000000e+01 
88.754   3.80000000e+01 
88.718   3.60000000e+01 
88.682   3.30000000e+01 
88.646   3.40000000e+01 
88.610   2.60000000e+01 
88.574   3.20000000e+01 
88.538   2.50000000e+01 
88.502   3.30000000e+01 
88.466   4.60000000e+01 
88.430   2.30000000e+01 
88.395   3.00000000e+01 
88.359   3.20000000e+01 
88.323   2.60000000e+01 
88.287   3.70000000e+01 
88.251   3.20000000e+01 
88.215   2.90000000e+01 
88.179   2.80000000e+01 
88.143   2.90000000e+01 
88.107   2.90000000e+01 
88.071   2.40000000e+01 
88.035   2.80000000e+01 
87.999   3.20000000e+01 
87.963   3.00000000e+01 
87.927   2.40000000e+01 
87.891   2.60000000e+01 
87.855   2.20000000e+01 
87.820   2.10000000e+01 
87.784   3.30000000e+01 
87.748   2.80000000e+01 
87.712   3.00000000e+01 
87.676   1.60000000e+01 
87.640   2.40000000e+01 
87.604   2.80000000e+01 
87.568   3.10000000e+01 
87.532   3.60000000e+01 
87.496   3.50000000e+01 
87.460   3.00000000e+01 
87.424   3.50000000e+01 
87.388   3.10000000e+01 
87.352   3.10000000e+01 
87.316   2.40000000e+01 
87.280   2.90000000e+01 
87.245   2.60000000e+01 
87.209   3.50000000e+01 
87.173   3.20000000e+01 
87.137   3.50000000e+01 
87.101   3.20000000e+01 
87.065   3.70000000e+01 
87.029   1.90000000e+01 
86.993   2.90000000e+01 
86.957   2.70000000e+01 
86.921   3.20000000e+01 
86.885   2.60000000e+01 
86.849   2.20000000e+01 
86.813   2.90000000e+01 
86.777   3.50000000e+01 
86.741   2.80000000e+01 
86.705   3.30000000e+01 
86.670   2.30000000e+01 
86.634   3.60000000e+01 
86.598   2.50000000e+01 
86.562   1.80000000e+01 
86.526   2.40000000e+01 
86.490   3.40000000e+01 
86.454   3.40000000e+01 
86.418   2.60000000e+01 
86.382   3.30000000e+01 
86.346   2.50000000e+01 
86.310   3.00000000e+01 
86.274   2.50000000e+01 
86.238   3.10000000e+01 
86.202   3.10000000e+01 
86.166   2.70000000e+01 
86.130   3.60000000e+01 
86.095   1.80000000e+01 
86.059   3.00000000e+01 
86.023   3.10000000e+01 

