EXPERIMENT FILE
Version = 2

[ Experiment Parameters ]
Experiment Description= <none> 
Number_of_Regions_in_Experiment= 1 

Original_File_name= C:\alexesca\data\0907_400W_36Deg.xps 
Instrument= HP ESCA West
Date= 09-07-2012
Time=  15:22:34

[ Layer Parameters ]
Layer_Type= XPS

[ Region 1 Parameters ]
Region_Description = Au Dithered Scan Test              
BEcenter(eV) = 91.000000
BEwidth(eV) = 10.000000
BEstep(eV) = 0.035937
Dwell_Time(sec) = 1.000000
N_o_scans = 1  
N_o_Channels = 278  
Scan_mode = 0  (DITHERED)

[ L= 1 R= 1 ]
BEcenter= 91.000  
BEwidth= -9.955  
Excitation= 1486.600
Time_p_channel= 256.000 
Size= 278
95.977   3.36000000e+02 
95.941   3.29000000e+02 
95.905   2.94000000e+02 
95.870   3.48000000e+02 
95.834   3.62000000e+02 
95.798   3.62000000e+02 
95.762   3.24000000e+02 
95.726   3.69000000e+02 
95.690   4.09000000e+02 
95.654   3.97000000e+02 
95.618   4.19000000e+02 
95.582   4.17000000e+02 
95.546   4.17000000e+02 
95.510   4.29000000e+02 
95.474   4.65000000e+02 
95.438   4.09000000e+02 
95.402   4.59000000e+02 
95.366   4.72000000e+02 
95.330   4.59000000e+02 
95.295   4.39000000e+02 
95.259   4.64000000e+02 
95.223   4.77000000e+02 
95.187   4.94000000e+02 
95.151   4.55000000e+02 
95.115   4.81000000e+02 
95.079   4.77000000e+02 
95.043   4.54000000e+02 
95.007   4.53000000e+02 
94.971   4.98000000e+02 
94.935   4.38000000e+02 
94.899   4.14000000e+02 
94.863   4.28000000e+02 
94.827   4.66000000e+02 
94.791   4.14000000e+02 
94.755   4.02000000e+02 
94.720   3.95000000e+02 
94.684   3.33000000e+02 
94.648   3.25000000e+02 
94.612   3.07000000e+02 
94.576   3.02000000e+02 
94.540   2.85000000e+02 
94.504   2.53000000e+02 
94.468   2.60000000e+02 
94.432   2.49000000e+02 
94.396   1.83000000e+02 
94.360   1.99000000e+02 
94.324   2.15000000e+02 
94.288   2.17000000e+02 
94.252   1.92000000e+02 
94.216   1.73000000e+02 
94.180   1.47000000e+02 
94.145   1.67000000e+02 
94.109   1.53000000e+02 
94.073   1.28000000e+02 
94.037   1.17000000e+02 
94.001   1.45000000e+02 
93.965   1.43000000e+02 
93.929   1.33000000e+02 
93.893   1.20000000e+02 
93.857   1.20000000e+02 
93.821   1.13000000e+02 
93.785   1.05000000e+02 
93.749   1.32000000e+02 
93.713   1.27000000e+02 
93.677   1.19000000e+02 
93.641   1.30000000e+02 
93.605   1.19000000e+02 
93.570   1.08000000e+02 
93.534   1.25000000e+02 
93.498   1.20000000e+02 
93.462   1.25000000e+02 
93.426   1.17000000e+02 
93.390   1.11000000e+02 
93.354   1.08000000e+02 
93.318   1.45000000e+02 
93.282   1.32000000e+02 
93.246   1.44000000e+02 
93.210   1.48000000e+02 
93.174   1.36000000e+02 
93.138   1.38000000e+02 
93.102   1.55000000e+02 
93.066   1.34000000e+02 
93.030   1.69000000e+02 
92.995   1.53000000e+02 
92.959   1.76000000e+02 
92.923   1.92000000e+02 
92.887   1.75000000e+02 
92.851   2.05000000e+02 
92.815   1.98000000e+02 
92.779   2.04000000e+02 
92.743   2.10000000e+02 
92.707   2.21000000e+02 
92.671   2.31000000e+02 
92.635   2.53000000e+02 
92.599   2.55000000e+02 
92.563   2.83000000e+02 
92.527   2.62000000e+02 
92.491   3.18000000e+02 
92.455   3.04000000e+02 
92.420   3.39000000e+02 
92.384   3.31000000e+02 
92.348   3.56000000e+02 
92.312   3.68000000e+02 
92.276   3.77000000e+02 
92.240   3.84000000e+02 
92.204   4.14000000e+02 
92.168   4.32000000e+02 
92.132   4.09000000e+02 
92.096   4.59000000e+02 
92.060   4.42000000e+02 
92.024   4.44000000e+02 
91.988   4.12000000e+02 
91.952   4.45000000e+02 
91.916   4.84000000e+02 
91.880   4.97000000e+02 
91.845   5.00000000e+02 
91.809   5.16000000e+02 
91.773   5.11000000e+02 
91.737   5.80000000e+02 
91.701   5.18000000e+02 
91.665   5.34000000e+02 
91.629   5.40000000e+02 
91.593   5.44000000e+02 
91.557   5.80000000e+02 
91.521   5.84000000e+02 
91.485   5.91000000e+02 
91.449   5.63000000e+02 
91.413   5.37000000e+02 
91.377   5.66000000e+02 
91.341   5.22000000e+02 
91.305   5.51000000e+02 
91.270   5.42000000e+02 
91.234   5.27000000e+02 
91.198   5.01000000e+02 
91.162   4.96000000e+02 
91.126   4.74000000e+02 
91.090   4.37000000e+02 
91.054   4.15000000e+02 
91.018   3.63000000e+02 
90.982   3.75000000e+02 
90.946   3.22000000e+02 
90.910   2.92000000e+02 
90.874   3.40000000e+02 
90.838   3.03000000e+02 
90.802   2.37000000e+02 
90.766   2.20000000e+02 
90.730   2.32000000e+02 
90.695   1.94000000e+02 
90.659   1.69000000e+02 
90.623   1.46000000e+02 
90.587   1.36000000e+02 
90.551   1.46000000e+02 
90.515   1.35000000e+02 
90.479   1.28000000e+02 
90.443   1.04000000e+02 
90.407   9.50000000e+01 
90.371   8.60000000e+01 
90.335   8.20000000e+01 
90.299   8.10000000e+01 
90.263   8.30000000e+01 
90.227   8.70000000e+01 
90.191   8.40000000e+01 
90.155   7.40000000e+01 
90.120   7.20000000e+01 
90.084   6.00000000e+01 
90.048   7.70000000e+01 
90.012   8.70000000e+01 
89.976   6.10000000e+01 
89.940   6.60000000e+01 
89.904   6.70000000e+01 
89.868   5.40000000e+01 
89.832   6.10000000e+01 
89.796   6.40000000e+01 
89.760   5.10000000e+01 
89.724   6.30000000e+01 
89.688   7.00000000e+01 
89.652   5.30000000e+01 
89.616   6.70000000e+01 
89.580   6.40000000e+01 
89.545   5.10000000e+01 
89.509   7.40000000e+01 
89.473   4.80000000e+01 
89.437   5.30000000e+01 
89.401   5.90000000e+01 
89.365   4.20000000e+01 
89.329   5.30000000e+01 
89.293   5.90000000e+01 
89.257   4.10000000e+01 
89.221   4.40000000e+01 
89.185   4.10000000e+01 
89.149   4.30000000e+01 
89.113   5.10000000e+01 
89.077   4.90000000e+01 
89.041   4.30000000e+01 
89.005   3.20000000e+01 
88.970   3.10000000e+01 
88.934   4.60000000e+01 
88.898   5.70000000e+01 
88.862   4.50000000e+01 
88.826   4.50000000e+01 
88.790   4.40000000e+01 
88.754   4.50000000e+01 
88.718   4.50000000e+01 
88.682   4.40000000e+01 
88.646   5.10000000e+01 
88.610   3.20000000e+01 
88.574   5.20000000e+01 
88.538   3.80000000e+01 
88.502   4.60000000e+01 
88.466   3.80000000e+01 
88.430   4.90000000e+01 
88.395   3.80000000e+01 
88.359   4.00000000e+01 
88.323   5.50000000e+01 
88.287   1.90000000e+01 
88.251   5.10000000e+01 
88.215   4.30000000e+01 
88.179   4.70000000e+01 
88.143   3.60000000e+01 
88.107   4.50000000e+01 
88.071   4.20000000e+01 
88.035   5.80000000e+01 
87.999   4.70000000e+01 
87.963   3.40000000e+01 
87.927   4.10000000e+01 
87.891   4.00000000e+01 
87.855   5.30000000e+01 
87.820   3.40000000e+01 
87.784   3.60000000e+01 
87.748   3.50000000e+01 
87.712   4.00000000e+01 
87.676   4.00000000e+01 
87.640   4.20000000e+01 
87.604   3.70000000e+01 
87.568   3.70000000e+01 
87.532   3.40000000e+01 
87.496   3.70000000e+01 
87.460   4.20000000e+01 
87.424   4.00000000e+01 
87.388   3.90000000e+01 
87.352   3.20000000e+01 
87.316   3.70000000e+01 
87.280   4.10000000e+01 
87.245   3.60000000e+01 
87.209   3.40000000e+01 
87.173   4.00000000e+01 
87.137   4.80000000e+01 
87.101   3.80000000e+01 
87.065   4.20000000e+01 
87.029   3.90000000e+01 
86.993   4.70000000e+01 
86.957   3.20000000e+01 
86.921   3.70000000e+01 
86.885   3.40000000e+01 
86.849   4.90000000e+01 
86.813   3.80000000e+01 
86.777   4.10000000e+01 
86.741   3.30000000e+01 
86.705   3.10000000e+01 
86.670   5.20000000e+01 
86.634   4.60000000e+01 
86.598   3.60000000e+01 
86.562   2.50000000e+01 
86.526   3.40000000e+01 
86.490   4.30000000e+01 
86.454   3.30000000e+01 
86.418   4.10000000e+01 
86.382   3.70000000e+01 
86.346   3.40000000e+01 
86.310   3.40000000e+01 
86.274   3.20000000e+01 
86.238   3.80000000e+01 
86.202   4.30000000e+01 
86.166   3.80000000e+01 
86.130   4.00000000e+01 
86.095   3.90000000e+01 
86.059   4.30000000e+01 
86.023   4.10000000e+01 

