EXPERIMENT FILE
Version = 2

[ Experiment Parameters ]
Experiment Description= <none> 
Number_of_Regions_in_Experiment= 1 

Original_File_name= C:\alexesca\data\0907_400W_32Deg.xps 
Instrument= HP ESCA West
Date= 09-07-2012
Time=  14:53:45

[ Layer Parameters ]
Layer_Type= XPS

[ Region 1 Parameters ]
Region_Description = Au Dithered Scan Test              
BEcenter(eV) = 91.000000
BEwidth(eV) = 10.000000
BEstep(eV) = 0.035937
Dwell_Time(sec) = 1.000000
N_o_scans = 1  
N_o_Channels = 278  
Scan_mode = 0  (DITHERED)

[ L= 1 R= 1 ]
BEcenter= 91.000  
BEwidth= -9.955  
Excitation= 1486.600
Time_p_channel= 256.000 
Size= 278
95.977   1.59000000e+02 
95.941   1.76000000e+02 
95.905   1.86000000e+02 
95.870   2.12000000e+02 
95.834   1.78000000e+02 
95.798   2.06000000e+02 
95.762   2.20000000e+02 
95.726   2.08000000e+02 
95.690   2.23000000e+02 
95.654   2.27000000e+02 
95.618   2.11000000e+02 
95.582   2.56000000e+02 
95.546   2.49000000e+02 
95.510   2.58000000e+02 
95.474   2.47000000e+02 
95.438   2.57000000e+02 
95.402   2.66000000e+02 
95.366   3.11000000e+02 
95.330   3.19000000e+02 
95.295   2.88000000e+02 
95.259   3.30000000e+02 
95.223   3.19000000e+02 
95.187   3.10000000e+02 
95.151   3.71000000e+02 
95.115   3.56000000e+02 
95.079   3.69000000e+02 
95.043   3.66000000e+02 
95.007   3.31000000e+02 
94.971   3.31000000e+02 
94.935   3.99000000e+02 
94.899   3.98000000e+02 
94.863   3.82000000e+02 
94.827   3.82000000e+02 
94.791   3.77000000e+02 
94.755   3.44000000e+02 
94.720   3.61000000e+02 
94.684   3.40000000e+02 
94.648   4.08000000e+02 
94.612   3.53000000e+02 
94.576   3.57000000e+02 
94.540   3.37000000e+02 
94.504   3.57000000e+02 
94.468   3.39000000e+02 
94.432   3.11000000e+02 
94.396   2.84000000e+02 
94.360   2.97000000e+02 
94.324   2.69000000e+02 
94.288   2.96000000e+02 
94.252   2.49000000e+02 
94.216   2.52000000e+02 
94.180   2.35000000e+02 
94.145   1.99000000e+02 
94.109   1.76000000e+02 
94.073   1.75000000e+02 
94.037   1.93000000e+02 
94.001   1.32000000e+02 
93.965   1.37000000e+02 
93.929   1.71000000e+02 
93.893   1.21000000e+02 
93.857   1.41000000e+02 
93.821   1.24000000e+02 
93.785   1.37000000e+02 
93.749   1.17000000e+02 
93.713   1.27000000e+02 
93.677   9.80000000e+01 
93.641   9.80000000e+01 
93.605   1.06000000e+02 
93.570   9.20000000e+01 
93.534   1.07000000e+02 
93.498   7.90000000e+01 
93.462   1.02000000e+02 
93.426   1.00000000e+02 
93.390   1.00000000e+02 
93.354   8.40000000e+01 
93.318   8.80000000e+01 
93.282   9.60000000e+01 
93.246   9.20000000e+01 
93.210   8.70000000e+01 
93.174   9.40000000e+01 
93.138   1.10000000e+02 
93.102   9.10000000e+01 
93.066   9.30000000e+01 
93.030   9.10000000e+01 
92.995   9.50000000e+01 
92.959   7.80000000e+01 
92.923   9.80000000e+01 
92.887   8.90000000e+01 
92.851   1.05000000e+02 
92.815   9.50000000e+01 
92.779   8.90000000e+01 
92.743   1.09000000e+02 
92.707   1.03000000e+02 
92.671   1.22000000e+02 
92.635   1.24000000e+02 
92.599   1.27000000e+02 
92.563   1.27000000e+02 
92.527   1.53000000e+02 
92.491   1.13000000e+02 
92.455   1.52000000e+02 
92.420   1.35000000e+02 
92.384   1.68000000e+02 
92.348   1.64000000e+02 
92.312   2.10000000e+02 
92.276   1.79000000e+02 
92.240   1.77000000e+02 
92.204   1.96000000e+02 
92.168   1.92000000e+02 
92.132   1.99000000e+02 
92.096   2.34000000e+02 
92.060   2.24000000e+02 
92.024   2.33000000e+02 
91.988   2.52000000e+02 
91.952   2.36000000e+02 
91.916   2.38000000e+02 
91.880   2.89000000e+02 
91.845   3.10000000e+02 
91.809   2.93000000e+02 
91.773   3.18000000e+02 
91.737   3.15000000e+02 
91.701   3.42000000e+02 
91.665   3.26000000e+02 
91.629   3.54000000e+02 
91.593   3.67000000e+02 
91.557   3.66000000e+02 
91.521   3.73000000e+02 
91.485   3.87000000e+02 
91.449   3.73000000e+02 
91.413   4.21000000e+02 
91.377   3.82000000e+02 
91.341   4.27000000e+02 
91.305   4.53000000e+02 
91.270   3.98000000e+02 
91.234   4.48000000e+02 
91.198   4.27000000e+02 
91.162   4.34000000e+02 
91.126   4.20000000e+02 
91.090   4.28000000e+02 
91.054   4.26000000e+02 
91.018   4.08000000e+02 
90.982   4.00000000e+02 
90.946   3.93000000e+02 
90.910   4.04000000e+02 
90.874   3.75000000e+02 
90.838   3.94000000e+02 
90.802   3.81000000e+02 
90.766   3.78000000e+02 
90.730   3.67000000e+02 
90.695   3.14000000e+02 
90.659   3.15000000e+02 
90.623   3.04000000e+02 
90.587   2.54000000e+02 
90.551   2.49000000e+02 
90.515   2.55000000e+02 
90.479   2.29000000e+02 
90.443   2.07000000e+02 
90.407   1.94000000e+02 
90.371   1.72000000e+02 
90.335   1.67000000e+02 
90.299   1.65000000e+02 
90.263   1.45000000e+02 
90.227   1.30000000e+02 
90.191   1.05000000e+02 
90.155   1.26000000e+02 
90.120   1.33000000e+02 
90.084   9.20000000e+01 
90.048   7.60000000e+01 
90.012   8.40000000e+01 
89.976   7.80000000e+01 
89.940   8.40000000e+01 
89.904   6.70000000e+01 
89.868   5.60000000e+01 
89.832   6.00000000e+01 
89.796   7.30000000e+01 
89.760   4.60000000e+01 
89.724   6.00000000e+01 
89.688   4.70000000e+01 
89.652   4.70000000e+01 
89.616   6.10000000e+01 
89.580   4.30000000e+01 
89.545   5.60000000e+01 
89.509   4.90000000e+01 
89.473   5.30000000e+01 
89.437   5.10000000e+01 
89.401   4.00000000e+01 
89.365   5.60000000e+01 
89.329   4.60000000e+01 
89.293   4.40000000e+01 
89.257   5.30000000e+01 
89.221   4.00000000e+01 
89.185   4.00000000e+01 
89.149   3.70000000e+01 
89.113   4.10000000e+01 
89.077   3.60000000e+01 
89.041   4.90000000e+01 
89.005   4.40000000e+01 
88.970   5.00000000e+01 
88.934   3.20000000e+01 
88.898   4.40000000e+01 
88.862   4.80000000e+01 
88.826   3.40000000e+01 
88.790   4.40000000e+01 
88.754   4.40000000e+01 
88.718   4.00000000e+01 
88.682   4.00000000e+01 
88.646   3.70000000e+01 
88.610   3.40000000e+01 
88.574   3.10000000e+01 
88.538   2.60000000e+01 
88.502   3.00000000e+01 
88.466   4.00000000e+01 
88.430   3.20000000e+01 
88.395   4.60000000e+01 
88.359   3.10000000e+01 
88.323   3.20000000e+01 
88.287   4.40000000e+01 
88.251   4.30000000e+01 
88.215   2.80000000e+01 
88.179   2.70000000e+01 
88.143   4.00000000e+01 
88.107   2.80000000e+01 
88.071   3.70000000e+01 
88.035   3.40000000e+01 
87.999   2.70000000e+01 
87.963   3.40000000e+01 
87.927   3.20000000e+01 
87.891   3.70000000e+01 
87.855   3.00000000e+01 
87.820   2.60000000e+01 
87.784   2.70000000e+01 
87.748   3.90000000e+01 
87.712   3.40000000e+01 
87.676   4.10000000e+01 
87.640   3.00000000e+01 
87.604   3.50000000e+01 
87.568   3.00000000e+01 
87.532   3.70000000e+01 
87.496   3.00000000e+01 
87.460   2.80000000e+01 
87.424   1.80000000e+01 
87.388   2.80000000e+01 
87.352   4.70000000e+01 
87.316   3.00000000e+01 
87.280   3.00000000e+01 
87.245   4.10000000e+01 
87.209   3.40000000e+01 
87.173   3.40000000e+01 
87.137   3.40000000e+01 
87.101   3.50000000e+01 
87.065   3.40000000e+01 
87.029   3.40000000e+01 
86.993   3.60000000e+01 
86.957   3.20000000e+01 
86.921   3.50000000e+01 
86.885   3.40000000e+01 
86.849   3.00000000e+01 
86.813   4.20000000e+01 
86.777   3.60000000e+01 
86.741   2.80000000e+01 
86.705   3.20000000e+01 
86.670   3.50000000e+01 
86.634   2.60000000e+01 
86.598   3.30000000e+01 
86.562   3.00000000e+01 
86.526   2.70000000e+01 
86.490   3.20000000e+01 
86.454   1.80000000e+01 
86.418   2.50000000e+01 
86.382   3.20000000e+01 
86.346   2.00000000e+01 
86.310   2.60000000e+01 
86.274   2.70000000e+01 
86.238   3.40000000e+01 
86.202   1.70000000e+01 
86.166   3.60000000e+01 
86.130   3.20000000e+01 
86.095   2.10000000e+01 
86.059   3.40000000e+01 
86.023   3.90000000e+01 

