EXPERIMENT FILE
Version = 2

[ Experiment Parameters ]
Experiment Description= <none> 
Number_of_Regions_in_Experiment= 1 

Original_File_name= C:\alexesca\data\0907_400W_42Deg.xps 
Instrument= HP ESCA West
Date= 09-07-2012
Time=  16:26:46

[ Layer Parameters ]
Layer_Type= XPS

[ Region 1 Parameters ]
Region_Description = Au Dithered Scan Test              
BEcenter(eV) = 91.000000
BEwidth(eV) = 10.000000
BEstep(eV) = 0.035938
Dwell_Time(sec) = 1.000000
N_o_scans = 1  
N_o_Channels = 278  
Scan_mode = 0  (DITHERED)

[ L= 1 R= 1 ]
BEcenter= 91.000  
BEwidth= -9.955  
Excitation= 1486.600
Time_p_channel= 256.000 
Size= 278
95.977   5.21000000e+02 
95.941   5.36000000e+02 
95.905   5.33000000e+02 
95.870   5.08000000e+02 
95.834   5.22000000e+02 
95.798   5.62000000e+02 
95.762   5.04000000e+02 
95.726   4.94000000e+02 
95.690   4.99000000e+02 
95.654   5.03000000e+02 
95.618   4.86000000e+02 
95.582   4.77000000e+02 
95.546   4.45000000e+02 
95.510   4.59000000e+02 
95.474   4.63000000e+02 
95.438   3.96000000e+02 
95.402   4.09000000e+02 
95.366   3.86000000e+02 
95.330   3.85000000e+02 
95.295   3.31000000e+02 
95.259   3.30000000e+02 
95.223   3.19000000e+02 
95.187   3.01000000e+02 
95.151   2.37000000e+02 
95.115   2.55000000e+02 
95.079   2.38000000e+02 
95.043   2.44000000e+02 
95.007   1.85000000e+02 
94.971   2.09000000e+02 
94.935   2.10000000e+02 
94.899   1.75000000e+02 
94.863   2.02000000e+02 
94.827   1.71000000e+02 
94.791   1.64000000e+02 
94.755   1.67000000e+02 
94.720   1.93000000e+02 
94.684   1.52000000e+02 
94.648   1.57000000e+02 
94.612   1.65000000e+02 
94.576   1.55000000e+02 
94.540   1.29000000e+02 
94.504   1.50000000e+02 
94.468   1.38000000e+02 
94.432   1.27000000e+02 
94.396   1.42000000e+02 
94.360   1.34000000e+02 
94.324   1.43000000e+02 
94.288   1.38000000e+02 
94.252   1.39000000e+02 
94.216   1.44000000e+02 
94.180   1.40000000e+02 
94.145   1.54000000e+02 
94.109   1.44000000e+02 
94.073   1.59000000e+02 
94.037   1.31000000e+02 
94.001   1.25000000e+02 
93.965   1.40000000e+02 
93.929   1.47000000e+02 
93.893   1.62000000e+02 
93.857   1.54000000e+02 
93.821   1.32000000e+02 
93.785   1.82000000e+02 
93.749   1.62000000e+02 
93.713   1.94000000e+02 
93.677   1.97000000e+02 
93.641   1.90000000e+02 
93.605   1.75000000e+02 
93.570   2.21000000e+02 
93.534   2.18000000e+02 
93.498   2.11000000e+02 
93.462   2.38000000e+02 
93.426   2.29000000e+02 
93.390   2.45000000e+02 
93.354   2.57000000e+02 
93.318   2.56000000e+02 
93.282   2.78000000e+02 
93.246   2.85000000e+02 
93.210   3.51000000e+02 
93.174   3.30000000e+02 
93.138   3.41000000e+02 
93.102   3.52000000e+02 
93.066   3.57000000e+02 
93.030   3.91000000e+02 
92.995   4.33000000e+02 
92.959   4.02000000e+02 
92.923   4.32000000e+02 
92.887   4.79000000e+02 
92.851   4.43000000e+02 
92.815   4.47000000e+02 
92.779   4.55000000e+02 
92.743   5.32000000e+02 
92.707   5.33000000e+02 
92.671   5.84000000e+02 
92.635   5.02000000e+02 
92.599   5.59000000e+02 
92.563   5.40000000e+02 
92.527   5.87000000e+02 
92.491   6.31000000e+02 
92.455   5.90000000e+02 
92.420   5.87000000e+02 
92.384   5.43000000e+02 
92.348   5.98000000e+02 
92.312   6.18000000e+02 
92.276   6.15000000e+02 
92.240   6.01000000e+02 
92.204   6.32000000e+02 
92.168   6.27000000e+02 
92.132   6.25000000e+02 
92.096   5.69000000e+02 
92.060   5.99000000e+02 
92.024   6.04000000e+02 
91.988   5.47000000e+02 
91.952   5.48000000e+02 
91.916   5.51000000e+02 
91.880   5.50000000e+02 
91.845   4.97000000e+02 
91.809   5.11000000e+02 
91.773   4.31000000e+02 
91.737   4.21000000e+02 
91.701   4.21000000e+02 
91.665   3.66000000e+02 
91.629   3.75000000e+02 
91.593   3.00000000e+02 
91.557   3.08000000e+02 
91.521   2.77000000e+02 
91.485   2.56000000e+02 
91.449   2.45000000e+02 
91.413   1.92000000e+02 
91.377   2.00000000e+02 
91.341   1.93000000e+02 
91.305   1.84000000e+02 
91.270   2.06000000e+02 
91.234   1.67000000e+02 
91.198   1.55000000e+02 
91.162   1.31000000e+02 
91.126   1.24000000e+02 
91.090   1.36000000e+02 
91.054   1.20000000e+02 
91.018   1.14000000e+02 
90.982   1.07000000e+02 
90.946   1.05000000e+02 
90.910   9.20000000e+01 
90.874   9.00000000e+01 
90.838   9.90000000e+01 
90.802   8.20000000e+01 
90.766   8.30000000e+01 
90.730   8.10000000e+01 
90.695   7.10000000e+01 
90.659   8.30000000e+01 
90.623   7.20000000e+01 
90.587   8.00000000e+01 
90.551   6.70000000e+01 
90.515   6.60000000e+01 
90.479   6.60000000e+01 
90.443   6.80000000e+01 
90.407   5.80000000e+01 
90.371   6.10000000e+01 
90.335   5.60000000e+01 
90.299   5.50000000e+01 
90.263   6.30000000e+01 
90.227   5.80000000e+01 
90.191   5.80000000e+01 
90.155   6.40000000e+01 
90.120   6.90000000e+01 
90.084   5.80000000e+01 
90.048   5.90000000e+01 
90.012   4.80000000e+01 
89.976   5.60000000e+01 
89.940   4.40000000e+01 
89.904   4.50000000e+01 
89.868   5.20000000e+01 
89.832   5.10000000e+01 
89.796   4.40000000e+01 
89.760   4.00000000e+01 
89.724   5.00000000e+01 
89.688   4.30000000e+01 
89.652   4.20000000e+01 
89.616   4.30000000e+01 
89.580   5.20000000e+01 
89.545   4.90000000e+01 
89.509   5.40000000e+01 
89.473   5.50000000e+01 
89.437   5.60000000e+01 
89.401   4.80000000e+01 
89.365   4.00000000e+01 
89.329   4.50000000e+01 
89.293   6.50000000e+01 
89.257   4.00000000e+01 
89.221   5.60000000e+01 
89.185   6.60000000e+01 
89.149   4.30000000e+01 
89.113   4.40000000e+01 
89.077   3.80000000e+01 
89.041   3.00000000e+01 
89.005   5.00000000e+01 
88.970   3.40000000e+01 
88.934   4.50000000e+01 
88.898   3.50000000e+01 
88.862   3.40000000e+01 
88.826   4.40000000e+01 
88.790   3.90000000e+01 
88.754   4.10000000e+01 
88.718   4.40000000e+01 
88.682   4.20000000e+01 
88.646   2.70000000e+01 
88.610   3.00000000e+01 
88.574   3.70000000e+01 
88.538   4.30000000e+01 
88.502   3.40000000e+01 
88.466   4.90000000e+01 
88.430   4.80000000e+01 
88.395   5.20000000e+01 
88.359   4.80000000e+01 
88.323   4.00000000e+01 
88.287   3.80000000e+01 
88.251   4.10000000e+01 
88.215   3.60000000e+01 
88.179   3.40000000e+01 
88.143   4.20000000e+01 
88.107   3.90000000e+01 
88.071   4.30000000e+01 
88.035   4.80000000e+01 
87.999   4.80000000e+01 
87.963   4.30000000e+01 
87.927   4.40000000e+01 
87.891   4.70000000e+01 
87.855   4.00000000e+01 
87.820   3.50000000e+01 
87.784   4.60000000e+01 
87.748   4.20000000e+01 
87.712   3.40000000e+01 
87.676   3.60000000e+01 
87.640   3.70000000e+01 
87.604   4.30000000e+01 
87.568   4.60000000e+01 
87.532   3.30000000e+01 
87.496   3.70000000e+01 
87.460   3.50000000e+01 
87.424   4.00000000e+01 
87.388   3.80000000e+01 
87.352   4.20000000e+01 
87.316   4.00000000e+01 
87.280   4.20000000e+01 
87.245   6.40000000e+01 
87.209   6.00000000e+01 
87.173   3.10000000e+01 
87.137   3.30000000e+01 
87.101   3.60000000e+01 
87.065   3.10000000e+01 
87.029   4.50000000e+01 
86.993   3.10000000e+01 
86.957   4.20000000e+01 
86.921   3.50000000e+01 
86.885   3.90000000e+01 
86.849   3.80000000e+01 
86.813   4.30000000e+01 
86.777   5.30000000e+01 
86.741   2.90000000e+01 
86.705   4.00000000e+01 
86.670   3.00000000e+01 
86.634   4.60000000e+01 
86.598   4.20000000e+01 
86.562   4.30000000e+01 
86.526   4.00000000e+01 
86.490   2.60000000e+01 
86.454   4.50000000e+01 
86.418   3.80000000e+01 
86.382   5.00000000e+01 
86.346   4.50000000e+01 
86.310   3.50000000e+01 
86.274   4.10000000e+01 
86.238   4.40000000e+01 
86.202   3.70000000e+01 
86.166   3.60000000e+01 
86.130   3.80000000e+01 
86.095   3.50000000e+01 
86.059   5.20000000e+01 
86.023   2.40000000e+01 

