EXPERIMENT FILE
Version = 2

[ Experiment Parameters ]
Experiment Description= <none> 
Number_of_Regions_in_Experiment= 1 

Original_File_name= c:\alexesca\data\detector\sample21.xps 
Instrument= HP ESCA West
Date= 01-22-2006
Time=  16:07:27

[ Layer Parameters ]
Layer_Type= XPS

[ Region 1 Parameters ]
Region_Description = Nsurvey                            
BEcenter(eV) = 600.000000
BEwidth(eV) = 1200.000000
BEstep(eV) = 0.539063
Dwell_Time(sec) = 0.250000
N_o_scans = 4  
N_o_Channels = 2217  
Scan_mode = 0  (DITHERED)

[ L= 1 R= 1 ]
BEcenter= 600.000 
BEwidth= -1199.414
Excitation= 1486.600
Time_p_channel= 17.067  
Size= 2226
1199.707 3.93000000e+02 
1199.168 3.92000000e+02 
1198.629 4.53000000e+02 
1198.090 4.11000000e+02 
1197.551 4.15000000e+02 
1197.012 3.83000000e+02 
1196.473 4.32000000e+02 
1195.934 4.00000000e+02 
1195.395 3.87000000e+02 
1194.855 3.92000000e+02 
1194.316 4.00000000e+02 
1193.777 4.28000000e+02 
1193.238 4.26000000e+02 
1192.699 4.15000000e+02 
1192.160 3.95000000e+02 
1191.621 3.90000000e+02 
1191.082 4.13000000e+02 
1190.543 3.87000000e+02 
1190.004 4.19000000e+02 
1189.465 3.91000000e+02 
1188.926 4.15000000e+02 
1188.387 3.71000000e+02 
1187.848 4.05000000e+02 
1187.309 4.08000000e+02 
1186.770 3.97000000e+02 
1186.230 3.86000000e+02 
1185.691 3.95000000e+02 
1185.152 4.06000000e+02 
1184.613 4.10000000e+02 
1184.074 4.03000000e+02 
1183.535 4.41000000e+02 
1182.996 3.87000000e+02 
1182.457 3.71000000e+02 
1181.918 3.96000000e+02 
1181.379 4.12000000e+02 
1180.840 3.74000000e+02 
1180.301 3.96000000e+02 
1179.762 3.91000000e+02 
1179.223 3.63000000e+02 
1178.684 3.77000000e+02 
1178.145 4.01000000e+02 
1177.605 3.99000000e+02 
1177.066 4.02000000e+02 
1176.527 3.88000000e+02 
1175.988 4.03000000e+02 
1175.449 3.97000000e+02 
1174.910 4.13000000e+02 
1174.371 3.55000000e+02 
1173.832 3.95000000e+02 
1173.293 3.85000000e+02 
1172.754 3.79000000e+02 
1172.215 3.79000000e+02 
1171.676 3.93000000e+02 
1171.137 3.96000000e+02 
1170.598 3.94000000e+02 
1170.059 3.84000000e+02 
1169.520 3.99000000e+02 
1168.980 4.05000000e+02 
1168.441 4.04000000e+02 
1167.902 4.52000000e+02 
1167.363 3.89000000e+02 
1166.824 3.77000000e+02 
1166.285 3.64000000e+02 
1165.746 3.78000000e+02 
1165.207 4.07000000e+02 
1164.668 3.90000000e+02 
1164.129 3.96000000e+02 
1163.590 4.09000000e+02 
1163.051 4.01000000e+02 
1162.512 3.53000000e+02 
1161.973 3.99000000e+02 
1161.434 3.85000000e+02 
1160.895 4.03000000e+02 
1160.355 4.05000000e+02 
1159.816 3.70000000e+02 
1159.277 3.97000000e+02 
1158.738 4.03000000e+02 
1158.199 3.94000000e+02 
1157.660 3.99000000e+02 
1157.121 4.03000000e+02 
1156.582 3.76000000e+02 
1156.043 3.92000000e+02 
1155.504 4.17000000e+02 
1154.965 3.89000000e+02 
1154.426 4.40000000e+02 
1153.887 4.13000000e+02 
1153.348 4.13000000e+02 
1152.809 4.12000000e+02 
1152.270 3.73000000e+02 
1151.730 3.91000000e+02 
1151.191 3.80000000e+02 
1150.652 3.80000000e+02 
1150.113 3.75000000e+02 
1149.574 3.83000000e+02 
1149.035 3.79000000e+02 
1148.496 3.90000000e+02 
1147.957 4.04000000e+02 
1147.418 4.11000000e+02 
1146.879 3.93000000e+02 
1146.340 3.68000000e+02 
1145.801 3.80000000e+02 
1145.262 4.10000000e+02 
1144.723 3.92000000e+02 
1144.184 3.82000000e+02 
1143.645 3.62000000e+02 
1143.105 3.70000000e+02 
1142.566 4.05000000e+02 
1142.027 4.06000000e+02 
1141.488 3.69000000e+02 
1140.949 4.00000000e+02 
1140.410 3.96000000e+02 
1139.871 3.75000000e+02 
1139.332 3.88000000e+02 
1138.793 4.11000000e+02 
1138.254 3.75000000e+02 
1137.715 3.78000000e+02 
1137.176 3.95000000e+02 
1136.637 3.83000000e+02 
1136.098 3.67000000e+02 
1135.559 3.76000000e+02 
1135.020 3.73000000e+02 
1134.480 3.89000000e+02 
1133.941 4.27000000e+02 
1133.402 4.31000000e+02 
1132.863 3.90000000e+02 
1132.324 4.37000000e+02 
1131.785 3.86000000e+02 
1131.246 4.05000000e+02 
1130.707 3.61000000e+02 
1130.168 4.27000000e+02 
1129.629 4.13000000e+02 
1129.090 3.79000000e+02 
1128.551 3.71000000e+02 
1128.012 3.64000000e+02 
1127.473 3.83000000e+02 
1126.934 3.97000000e+02 
1126.395 3.80000000e+02 
1125.855 4.03000000e+02 
1125.316 3.70000000e+02 
1124.777 3.96000000e+02 
1124.238 3.91000000e+02 
1123.699 4.29000000e+02 
1123.160 3.85000000e+02 
1122.621 3.94000000e+02 
1122.082 3.65000000e+02 
1121.543 4.09000000e+02 
1121.004 3.71000000e+02 
1120.465 3.87000000e+02 
1119.926 3.64000000e+02 
1119.387 4.24000000e+02 
1118.848 4.04000000e+02 
1118.309 3.98000000e+02 
1117.770 4.28000000e+02 
1117.230 3.97000000e+02 
1116.691 4.16000000e+02 
1116.152 4.22000000e+02 
1115.613 3.96000000e+02 
1115.074 4.11000000e+02 
1114.535 4.40000000e+02 
1113.996 3.91000000e+02 
1113.457 3.96000000e+02 
1112.918 3.80000000e+02 
1112.379 4.29000000e+02 
1111.840 4.23000000e+02 
1111.301 3.99000000e+02 
1110.762 4.33000000e+02 
1110.223 4.07000000e+02 
1109.684 4.09000000e+02 
1109.145 3.97000000e+02 
1108.605 4.14000000e+02 
1108.066 4.41000000e+02 
1107.527 4.04000000e+02 
1106.988 3.90000000e+02 
1106.449 4.18000000e+02 
1105.910 4.03000000e+02 
1105.371 4.12000000e+02 
1104.832 4.31000000e+02 
1104.293 4.14000000e+02 
1103.754 4.15000000e+02 
1103.215 3.89000000e+02 
1102.676 3.98000000e+02 
1102.137 4.18000000e+02 
1101.598 3.84000000e+02 
1101.059 4.47000000e+02 
1100.520 4.43000000e+02 
1099.980 4.42000000e+02 
1099.441 3.96000000e+02 
1098.902 4.54000000e+02 
1098.363 4.01000000e+02 
1097.824 4.30000000e+02 
1097.285 4.32000000e+02 
1096.746 3.87000000e+02 
1096.207 4.10000000e+02 
1095.668 4.12000000e+02 
1095.129 3.79000000e+02 
1094.590 4.23000000e+02 
1094.051 3.84000000e+02 
1093.512 3.99000000e+02 
1092.973 4.57000000e+02 
1092.434 4.00000000e+02 
1091.895 3.99000000e+02 
1091.355 3.89000000e+02 
1090.816 3.96000000e+02 
1090.277 3.78000000e+02 
1089.738 3.96000000e+02 
1089.199 4.13000000e+02 
1088.660 4.02000000e+02 
1088.121 4.04000000e+02 
1087.582 4.07000000e+02 
1087.043 3.84000000e+02 
1086.504 3.91000000e+02 
1085.965 3.82000000e+02 
1085.426 3.96000000e+02 
1084.887 3.87000000e+02 
1084.348 3.87000000e+02 
1083.809 3.98000000e+02 
1083.270 4.10000000e+02 
1082.730 3.84000000e+02 
1082.191 3.79000000e+02 
1081.652 3.93000000e+02 
1081.113 3.82000000e+02 
1080.574 3.48000000e+02 
1080.035 3.60000000e+02 
1079.496 3.92000000e+02 
1078.957 4.29000000e+02 
1078.418 4.39000000e+02 
1077.879 5.30000000e+02 
1077.340 6.42000000e+02 
1076.801 6.72000000e+02 
1076.262 7.01000000e+02 
1075.723 5.39000000e+02 
1075.184 4.52000000e+02 
1074.645 3.81000000e+02 
1074.105 3.30000000e+02 
1073.566 3.76000000e+02 
1073.027 3.94000000e+02 
1072.488 3.99000000e+02 
1071.949 3.67000000e+02 
1071.410 3.61000000e+02 
1070.871 3.74000000e+02 
1070.332 3.46000000e+02 
1069.793 3.68000000e+02 
1069.254 3.79000000e+02 
1068.715 3.81000000e+02 
1068.176 3.88000000e+02 
1067.637 3.77000000e+02 
1067.098 3.71000000e+02 
1066.559 3.92000000e+02 
1066.020 3.54000000e+02 
1065.480 3.49000000e+02 
1064.941 3.83000000e+02 
1064.402 3.57000000e+02 
1063.863 3.64000000e+02 
1063.324 3.80000000e+02 
1062.785 3.81000000e+02 
1062.246 3.77000000e+02 
1061.707 3.99000000e+02 
1061.168 3.49000000e+02 
1060.629 3.48000000e+02 
1060.090 3.79000000e+02 
1059.551 3.93000000e+02 
1059.012 3.94000000e+02 
1058.473 3.43000000e+02 
1057.934 4.11000000e+02 
1057.395 3.82000000e+02 
1056.855 3.47000000e+02 
1056.316 3.95000000e+02 
1055.777 3.59000000e+02 
1055.238 3.83000000e+02 
1054.699 3.83000000e+02 
1054.160 3.56000000e+02 
1053.621 3.53000000e+02 
1053.082 4.00000000e+02 
1052.543 3.77000000e+02 
1052.004 3.49000000e+02 
1051.465 3.52000000e+02 
1050.926 3.86000000e+02 
1050.387 3.89000000e+02 
1049.848 3.39000000e+02 
1049.309 4.21000000e+02 
1048.770 3.59000000e+02 
1048.230 3.88000000e+02 
1047.691 3.72000000e+02 
1047.152 3.56000000e+02 
1046.613 3.62000000e+02 
1046.074 3.63000000e+02 
1045.535 3.73000000e+02 
1044.996 3.68000000e+02 
1044.457 3.57000000e+02 
1043.918 3.45000000e+02 
1043.379 3.84000000e+02 
1042.840 3.49000000e+02 
1042.301 3.85000000e+02 
1041.762 3.43000000e+02 
1041.223 3.11000000e+02 
1040.684 3.74000000e+02 
1040.145 3.59000000e+02 
1039.605 4.09000000e+02 
1039.066 3.60000000e+02 
1038.527 3.61000000e+02 
1037.988 3.67000000e+02 
1037.449 3.63000000e+02 
1036.910 3.47000000e+02 
1036.371 3.66000000e+02 
1035.832 3.48000000e+02 
1035.293 3.72000000e+02 
1034.754 3.88000000e+02 
1034.215 3.54000000e+02 
1033.676 4.16000000e+02 
1033.137 3.62000000e+02 
1032.598 3.65000000e+02 
1032.059 3.77000000e+02 
1031.520 3.78000000e+02 
1030.980 3.77000000e+02 
1030.441 3.76000000e+02 
1029.902 3.99000000e+02 
1029.363 3.98000000e+02 
1028.824 3.65000000e+02 
1028.285 3.70000000e+02 
1027.746 3.76000000e+02 
1027.207 3.78000000e+02 
1026.668 4.02000000e+02 
1026.129 3.83000000e+02 
1025.590 3.69000000e+02 
1025.051 3.94000000e+02 
1024.512 3.57000000e+02 
1023.973 3.27000000e+02 
1023.434 3.15000000e+02 
1022.895 3.76000000e+02 
1022.355 3.52000000e+02 
1021.816 3.55000000e+02 
1021.277 3.71000000e+02 
1020.738 3.51000000e+02 
1020.199 4.04000000e+02 
1019.660 3.43000000e+02 
1019.121 3.91000000e+02 
1018.582 3.85000000e+02 
1018.043 3.84000000e+02 
1017.504 3.55000000e+02 
1016.965 3.58000000e+02 
1016.426 3.66000000e+02 
1015.887 3.30000000e+02 
1015.348 3.72000000e+02 
1014.809 3.73000000e+02 
1014.270 3.29000000e+02 
1013.730 3.90000000e+02 
1013.191 3.78000000e+02 
1012.652 3.39000000e+02 
1012.113 3.44000000e+02 
1011.574 3.47000000e+02 
1011.035 3.65000000e+02 
1010.496 3.91000000e+02 
1009.957 3.49000000e+02 
1009.418 3.91000000e+02 
1008.879 3.41000000e+02 
1008.340 3.64000000e+02 
1007.801 3.83000000e+02 
1007.262 3.91000000e+02 
1006.723 3.47000000e+02 
1006.184 3.79000000e+02 
1005.645 3.61000000e+02 
1005.105 3.76000000e+02 
1004.566 3.69000000e+02 
1004.027 3.78000000e+02 
1003.488 3.60000000e+02 
1002.949 3.70000000e+02 
1002.410 3.76000000e+02 
1001.871 3.84000000e+02 
1001.332 3.52000000e+02 
1000.793 4.01000000e+02 
1000.254 3.42000000e+02 
999.715  3.69000000e+02 
999.176  3.39000000e+02 
998.637  3.74000000e+02 
998.098  3.56000000e+02 
997.559  3.50000000e+02 
997.020  3.48000000e+02 
996.480  3.64000000e+02 
995.941  3.95000000e+02 
995.402  3.54000000e+02 
994.863  3.41000000e+02 
994.324  3.42000000e+02 
993.785  3.53000000e+02 
993.246  3.47000000e+02 
992.707  3.76000000e+02 
992.168  3.38000000e+02 
991.629  3.55000000e+02 
991.090  3.30000000e+02 
990.551  3.42000000e+02 
990.012  3.35000000e+02 
989.473  3.55000000e+02 
988.934  3.31000000e+02 
988.395  3.46000000e+02 
987.855  3.51000000e+02 
987.316  3.51000000e+02 
986.777  3.95000000e+02 
986.238  3.82000000e+02 
985.699  3.65000000e+02 
985.160  3.63000000e+02 
984.621  3.74000000e+02 
984.082  3.74000000e+02 
983.543  4.00000000e+02 
983.004  3.91000000e+02 
982.465  3.71000000e+02 
981.926  3.66000000e+02 
981.387  3.27000000e+02 
980.848  3.76000000e+02 
980.309  3.97000000e+02 
979.770  3.99000000e+02 
979.230  3.59000000e+02 
978.691  3.20000000e+02 
978.152  3.50000000e+02 
977.613  3.10000000e+02 
977.074  3.37000000e+02 
976.535  3.30000000e+02 
975.996  3.66000000e+02 
975.457  3.06000000e+02 
974.918  3.27000000e+02 
974.379  2.91000000e+02 
973.840  3.29000000e+02 
973.301  2.80000000e+02 
972.762  2.83000000e+02 
972.223  2.93000000e+02 
971.684  3.13000000e+02 
971.145  2.76000000e+02 
970.605  2.91000000e+02 
970.066  2.76000000e+02 
969.527  3.02000000e+02 
968.988  2.82000000e+02 
968.449  2.96000000e+02 
967.910  2.93000000e+02 
967.371  2.87000000e+02 
966.832  2.90000000e+02 
966.293  2.72000000e+02 
965.754  2.71000000e+02 
965.215  2.53000000e+02 
964.676  2.60000000e+02 
964.137  2.62000000e+02 
963.598  2.69000000e+02 
963.059  2.83000000e+02 
962.520  2.80000000e+02 
961.980  2.96000000e+02 
961.441  2.42000000e+02 
960.902  2.82000000e+02 
960.363  2.88000000e+02 
959.824  2.89000000e+02 
959.285  2.62000000e+02 
958.746  2.66000000e+02 
958.207  2.97000000e+02 
957.668  2.91000000e+02 
957.129  2.63000000e+02 
956.590  2.68000000e+02 
956.051  2.76000000e+02 
955.512  2.98000000e+02 
954.973  2.94000000e+02 
954.434  2.70000000e+02 
953.895  3.02000000e+02 
953.355  2.60000000e+02 
952.816  2.70000000e+02 
952.277  2.69000000e+02 
951.738  2.66000000e+02 
951.199  2.65000000e+02 
950.660  2.58000000e+02 
950.121  2.67000000e+02 
949.582  2.91000000e+02 
949.043  2.95000000e+02 
948.504  2.55000000e+02 
947.965  2.71000000e+02 
947.426  2.53000000e+02 
946.887  2.81000000e+02 
946.348  2.74000000e+02 
945.809  2.50000000e+02 
945.270  2.51000000e+02 
944.730  2.74000000e+02 
944.191  2.38000000e+02 
943.652  2.71000000e+02 
943.113  2.57000000e+02 
942.574  2.91000000e+02 
942.035  2.40000000e+02 
941.496  2.66000000e+02 
940.957  2.78000000e+02 
940.418  3.08000000e+02 
939.879  2.58000000e+02 
939.340  2.83000000e+02 
938.801  2.68000000e+02 
938.262  2.48000000e+02 
937.723  2.81000000e+02 
937.184  2.51000000e+02 
936.645  2.54000000e+02 
936.105  2.63000000e+02 
935.566  2.47000000e+02 
935.027  2.82000000e+02 
934.488  2.66000000e+02 
933.949  2.45000000e+02 
933.410  2.80000000e+02 
932.871  2.70000000e+02 
932.332  2.30000000e+02 
931.793  2.35000000e+02 
931.254  2.53000000e+02 
930.715  2.63000000e+02 
930.176  2.72000000e+02 
929.637  2.11000000e+02 
929.098  2.47000000e+02 
928.559  2.68000000e+02 
928.020  2.83000000e+02 
927.480  2.84000000e+02 
926.941  2.54000000e+02 
926.402  2.47000000e+02 
925.863  2.22000000e+02 
925.324  2.22000000e+02 
924.785  2.52000000e+02 
924.246  2.55000000e+02 
923.707  2.66000000e+02 
923.168  2.72000000e+02 
922.629  2.65000000e+02 
922.090  2.61000000e+02 
921.551  2.21000000e+02 
921.012  2.84000000e+02 
920.473  2.56000000e+02 
919.934  2.63000000e+02 
919.395  2.63000000e+02 
918.855  2.34000000e+02 
918.316  2.57000000e+02 
917.777  2.15000000e+02 
917.238  2.51000000e+02 
916.699  2.59000000e+02 
916.160  2.54000000e+02 
915.621  2.63000000e+02 
915.082  2.52000000e+02 
914.543  2.80000000e+02 
914.004  2.50000000e+02 
913.465  2.67000000e+02 
912.926  2.76000000e+02 
912.387  2.26000000e+02 
911.848  2.50000000e+02 
911.309  2.36000000e+02 
910.770  2.44000000e+02 
910.230  2.59000000e+02 
909.691  2.59000000e+02 
909.152  2.80000000e+02 
908.613  2.81000000e+02 
908.074  2.82000000e+02 
907.535  2.34000000e+02 
906.996  2.31000000e+02 
906.457  2.77000000e+02 
905.918  2.41000000e+02 
905.379  2.55000000e+02 
904.840  2.52000000e+02 
904.301  2.50000000e+02 
903.762  2.70000000e+02 
903.223  2.55000000e+02 
902.684  2.82000000e+02 
902.145  2.29000000e+02 
901.605  2.81000000e+02 
901.066  2.71000000e+02 
900.527  2.63000000e+02 
899.988  2.36000000e+02 
899.449  2.78000000e+02 
898.910  2.36000000e+02 
898.371  2.47000000e+02 
897.832  2.56000000e+02 
897.293  2.71000000e+02 
896.754  2.44000000e+02 
896.215  2.53000000e+02 
895.676  2.62000000e+02 
895.137  2.71000000e+02 
894.598  2.66000000e+02 
894.059  2.45000000e+02 
893.520  2.64000000e+02 
892.980  2.35000000e+02 
892.441  2.52000000e+02 
891.902  2.58000000e+02 
891.363  2.52000000e+02 
890.824  2.29000000e+02 
890.285  2.72000000e+02 
889.746  2.55000000e+02 
889.207  2.63000000e+02 
888.668  2.50000000e+02 
888.129  2.72000000e+02 
887.590  2.45000000e+02 
887.051  2.41000000e+02 
886.512  2.33000000e+02 
885.973  2.61000000e+02 
885.434  2.34000000e+02 
884.895  2.43000000e+02 
884.355  2.25000000e+02 
883.816  2.59000000e+02 
883.277  2.40000000e+02 
882.738  2.52000000e+02 
882.199  2.34000000e+02 
881.660  2.40000000e+02 
881.121  2.53000000e+02 
880.582  2.76000000e+02 
880.043  2.57000000e+02 
879.504  2.39000000e+02 
878.965  2.54000000e+02 
878.426  2.19000000e+02 
877.887  2.46000000e+02 
877.348  2.48000000e+02 
876.809  2.25000000e+02 
876.270  2.41000000e+02 
875.730  2.69000000e+02 
875.191  2.54000000e+02 
874.652  2.40000000e+02 
874.113  2.53000000e+02 
873.574  2.47000000e+02 
873.035  2.37000000e+02 
872.496  2.44000000e+02 
871.957  2.51000000e+02 
871.418  2.36000000e+02 
870.879  2.51000000e+02 
870.340  2.21000000e+02 
869.801  2.44000000e+02 
869.262  2.15000000e+02 
868.723  2.24000000e+02 
868.184  2.32000000e+02 
867.645  2.35000000e+02 
867.105  2.38000000e+02 
866.566  2.50000000e+02 
866.027  2.30000000e+02 
865.488  2.42000000e+02 
864.949  2.58000000e+02 
864.410  2.39000000e+02 
863.871  2.38000000e+02 
863.332  2.19000000e+02 
862.793  2.43000000e+02 
862.254  2.33000000e+02 
861.715  2.62000000e+02 
861.176  2.58000000e+02 
860.637  2.60000000e+02 
860.098  2.44000000e+02 
859.559  2.54000000e+02 
859.020  2.47000000e+02 
858.480  2.19000000e+02 
857.941  2.40000000e+02 
857.402  2.32000000e+02 
856.863  1.99000000e+02 
856.324  2.38000000e+02 
855.785  2.14000000e+02 
855.246  2.36000000e+02 
854.707  2.46000000e+02 
854.168  2.45000000e+02 
853.629  2.08000000e+02 
853.090  2.41000000e+02 
852.551  2.32000000e+02 
852.012  2.19000000e+02 
851.473  2.52000000e+02 
850.934  2.13000000e+02 
850.395  2.05000000e+02 
849.855  2.32000000e+02 
849.316  2.34000000e+02 
848.777  2.16000000e+02 
848.238  2.03000000e+02 
847.699  2.26000000e+02 
847.160  2.39000000e+02 
846.621  2.15000000e+02 
846.082  2.41000000e+02 
845.543  2.24000000e+02 
845.004  2.36000000e+02 
844.465  2.12000000e+02 
843.926  2.31000000e+02 
843.387  2.44000000e+02 
842.848  2.15000000e+02 
842.309  2.31000000e+02 
841.770  2.27000000e+02 
841.230  2.31000000e+02 
840.691  2.40000000e+02 
840.152  2.21000000e+02 
839.613  2.28000000e+02 
839.074  2.17000000e+02 
838.535  2.17000000e+02 
837.996  2.16000000e+02 
837.457  2.22000000e+02 
836.918  2.47000000e+02 
836.379  2.30000000e+02 
835.840  2.05000000e+02 
835.301  2.25000000e+02 
834.762  2.09000000e+02 
834.223  2.22000000e+02 
833.684  2.31000000e+02 
833.145  2.34000000e+02 
832.605  2.55000000e+02 
832.066  2.42000000e+02 
831.527  2.19000000e+02 
830.988  2.12000000e+02 
830.449  2.36000000e+02 
829.910  2.29000000e+02 
829.371  2.15000000e+02 
828.832  2.28000000e+02 
828.293  2.32000000e+02 
827.754  2.20000000e+02 
827.215  2.18000000e+02 
826.676  2.10000000e+02 
826.137  2.44000000e+02 
825.598  2.25000000e+02 
825.059  2.05000000e+02 
824.520  2.18000000e+02 
823.980  2.11000000e+02 
823.441  2.49000000e+02 
822.902  2.03000000e+02 
822.363  2.38000000e+02 
821.824  2.00000000e+02 
821.285  2.20000000e+02 
820.746  2.27000000e+02 
820.207  2.23000000e+02 
819.668  2.47000000e+02 
819.129  2.33000000e+02 
818.590  2.13000000e+02 
818.051  2.14000000e+02 
817.512  1.98000000e+02 
816.973  2.40000000e+02 
816.434  2.08000000e+02 
815.895  2.34000000e+02 
815.355  2.26000000e+02 
814.816  2.10000000e+02 
814.277  2.33000000e+02 
813.738  2.36000000e+02 
813.199  2.29000000e+02 
812.660  2.28000000e+02 
812.121  2.15000000e+02 
811.582  2.09000000e+02 
811.043  2.27000000e+02 
810.504  2.32000000e+02 
809.965  2.02000000e+02 
809.426  2.62000000e+02 
808.887  2.33000000e+02 
808.348  2.32000000e+02 
807.809  2.28000000e+02 
807.270  2.40000000e+02 
806.730  2.31000000e+02 
806.191  2.10000000e+02 
805.652  2.09000000e+02 
805.113  2.01000000e+02 
804.574  2.29000000e+02 
804.035  2.12000000e+02 
803.496  2.64000000e+02 
802.957  2.22000000e+02 
802.418  2.18000000e+02 
801.879  2.07000000e+02 
801.340  2.42000000e+02 
800.801  2.11000000e+02 
800.262  2.24000000e+02 
799.723  2.43000000e+02 
