EXPERIMENT FILE
Version = 2

[ Experiment Parameters ]
Experiment Description= <none> 
Number_of_Regions_in_Experiment= 1 

Original_File_name= c:\alexesca\data\detector\sur_s_2.xps 
Instrument= HP ESCA West
Date= 02-19-2006
Time=  20:22:59

[ Layer Parameters ]
Layer_Type= XPS

[ Region 1 Parameters ]
Region_Description = Nsurvey                            
BEcenter(eV) = 640.000000
BEwidth(eV) = 1300.000000
BEstep(eV) = 0.539063
Dwell_Time(sec) = 0.250000
N_o_scans = 3  
N_o_Channels = 2402  
Scan_mode = 0  (DITHERED)

[ L= 1 R= 1 ]
BEcenter= 640.000 
BEwidth= -1299.680
Excitation= 1486.600
Time_p_channel= 12.800  
Size= 2412
1289.840 7.13000000e+02 
1289.301 7.10000000e+02 
1288.762 6.90000000e+02 
1288.223 6.96000000e+02 
1287.684 6.63000000e+02 
1287.145 7.15000000e+02 
1286.605 7.17000000e+02 
1286.066 7.02000000e+02 
1285.527 7.14000000e+02 
1284.988 6.88000000e+02 
1284.449 6.98000000e+02 
1283.910 7.03000000e+02 
1283.371 6.69000000e+02 
1282.832 7.29000000e+02 
1282.293 6.96000000e+02 
1281.754 7.20000000e+02 
1281.215 6.83000000e+02 
1280.676 7.94000000e+02 
1280.137 7.07000000e+02 
1279.598 7.33000000e+02 
1279.059 7.27000000e+02 
1278.520 7.30000000e+02 
1277.980 6.69000000e+02 
1277.441 6.74000000e+02 
1276.902 7.13000000e+02 
1276.363 6.96000000e+02 
1275.824 7.40000000e+02 
1275.285 7.26000000e+02 
1274.746 7.11000000e+02 
1274.207 7.30000000e+02 
1273.668 6.73000000e+02 
1273.129 6.62000000e+02 
1272.590 7.07000000e+02 
1272.051 7.36000000e+02 
1271.512 7.16000000e+02 
1270.973 6.95000000e+02 
1270.434 7.48000000e+02 
1269.895 7.01000000e+02 
1269.355 7.54000000e+02 
1268.816 6.77000000e+02 
1268.277 7.00000000e+02 
1267.738 7.51000000e+02 
1267.199 7.31000000e+02 
1266.660 7.38000000e+02 
1266.121 7.35000000e+02 
1265.582 7.91000000e+02 
1265.043 7.42000000e+02 
1264.504 7.69000000e+02 
1263.965 7.28000000e+02 
1263.426 7.69000000e+02 
1262.887 6.92000000e+02 
1262.348 7.01000000e+02 
1261.809 7.62000000e+02 
1261.270 7.33000000e+02 
1260.730 7.20000000e+02 
1260.191 7.62000000e+02 
1259.652 6.89000000e+02 
1259.113 7.41000000e+02 
1258.574 7.43000000e+02 
1258.035 7.11000000e+02 
1257.496 7.83000000e+02 
1256.957 7.38000000e+02 
1256.418 7.87000000e+02 
1255.879 7.66000000e+02 
1255.340 7.22000000e+02 
1254.801 8.12000000e+02 
1254.262 7.69000000e+02 
1253.723 8.05000000e+02 
1253.184 7.42000000e+02 
1252.645 7.67000000e+02 
1252.105 7.63000000e+02 
1251.566 7.30000000e+02 
1251.027 7.76000000e+02 
1250.488 7.94000000e+02 
1249.949 7.32000000e+02 
1249.410 7.91000000e+02 
1248.871 7.24000000e+02 
1248.332 7.20000000e+02 
1247.793 7.65000000e+02 
1247.254 7.97000000e+02 
1246.715 7.45000000e+02 
1246.176 7.43000000e+02 
1245.637 7.78000000e+02 
1245.098 7.50000000e+02 
1244.559 7.47000000e+02 
1244.020 8.03000000e+02 
1243.480 7.82000000e+02 
1242.941 7.87000000e+02 
1242.402 8.09000000e+02 
1241.863 7.86000000e+02 
1241.324 7.89000000e+02 
1240.785 7.52000000e+02 
1240.246 7.44000000e+02 
1239.707 7.77000000e+02 
1239.168 8.11000000e+02 
1238.629 7.29000000e+02 
1238.090 7.47000000e+02 
1237.551 8.32000000e+02 
1237.012 7.92000000e+02 
1236.473 8.52000000e+02 
1235.934 8.64000000e+02 
1235.395 7.37000000e+02 
1234.855 7.86000000e+02 
1234.316 7.82000000e+02 
1233.777 8.10000000e+02 
1233.238 7.47000000e+02 
1232.699 7.64000000e+02 
1232.160 8.53000000e+02 
1231.621 7.61000000e+02 
1231.082 8.60000000e+02 
1230.543 7.93000000e+02 
1230.004 8.01000000e+02 
1229.465 8.04000000e+02 
1228.926 7.63000000e+02 
1228.387 8.07000000e+02 
1227.848 7.87000000e+02 
1227.309 7.79000000e+02 
1226.770 8.15000000e+02 
1226.230 7.80000000e+02 
1225.691 8.09000000e+02 
1225.152 8.01000000e+02 
1224.613 8.04000000e+02 
1224.074 7.84000000e+02 
1223.535 7.92000000e+02 
1222.996 7.71000000e+02 
1222.457 7.69000000e+02 
1221.918 7.28000000e+02 
1221.379 7.65000000e+02 
1220.840 7.44000000e+02 
1220.301 7.61000000e+02 
1219.762 7.88000000e+02 
1219.223 7.45000000e+02 
1218.684 7.24000000e+02 
1218.145 7.29000000e+02 
1217.605 7.28000000e+02 
1217.066 7.21000000e+02 
1216.527 7.46000000e+02 
1215.988 7.36000000e+02 
1215.449 7.74000000e+02 
1214.910 6.65000000e+02 
1214.371 7.50000000e+02 
1213.832 7.06000000e+02 
1213.293 7.03000000e+02 
1212.754 7.31000000e+02 
1212.215 7.52000000e+02 
1211.676 7.42000000e+02 
1211.137 7.25000000e+02 
1210.598 6.72000000e+02 
1210.059 7.50000000e+02 
1209.520 6.95000000e+02 
1208.980 6.91000000e+02 
1208.441 7.24000000e+02 
1207.902 6.75000000e+02 
1207.363 7.33000000e+02 
1206.824 7.13000000e+02 
1206.285 6.61000000e+02 
1205.746 7.13000000e+02 
1205.207 7.06000000e+02 
1204.668 7.31000000e+02 
1204.129 7.07000000e+02 
1203.590 7.39000000e+02 
1203.051 6.82000000e+02 
1202.512 6.90000000e+02 
1201.973 7.51000000e+02 
1201.434 7.42000000e+02 
1200.895 7.46000000e+02 
1200.355 6.67000000e+02 
1199.816 7.38000000e+02 
1199.277 7.04000000e+02 
1198.738 7.61000000e+02 
1198.199 7.34000000e+02 
1197.660 6.69000000e+02 
1197.121 6.94000000e+02 
1196.582 7.21000000e+02 
1196.043 6.99000000e+02 
1195.504 7.41000000e+02 
1194.965 7.27000000e+02 
1194.426 7.21000000e+02 
1193.887 7.11000000e+02 
1193.348 7.21000000e+02 
1192.809 7.28000000e+02 
1192.270 7.62000000e+02 
1191.730 6.98000000e+02 
1191.191 7.43000000e+02 
1190.652 6.96000000e+02 
1190.113 7.22000000e+02 
1189.574 6.79000000e+02 
1189.035 6.42000000e+02 
1188.496 7.01000000e+02 
1187.957 7.32000000e+02 
1187.418 7.15000000e+02 
1186.879 7.14000000e+02 
1186.340 6.87000000e+02 
1185.801 7.24000000e+02 
1185.262 6.95000000e+02 
1184.723 6.63000000e+02 
1184.184 6.85000000e+02 
1183.645 7.20000000e+02 
1183.105 7.47000000e+02 
1182.566 7.18000000e+02 
1182.027 7.04000000e+02 
1181.488 7.30000000e+02 
1180.949 7.28000000e+02 
1180.410 6.99000000e+02 
1179.871 7.32000000e+02 
1179.332 7.39000000e+02 
1178.793 7.17000000e+02 
1178.254 7.10000000e+02 
1177.715 6.54000000e+02 
1177.176 6.82000000e+02 
1176.637 6.70000000e+02 
1176.098 7.24000000e+02 
1175.559 6.97000000e+02 
1175.020 7.19000000e+02 
1174.480 6.93000000e+02 
1173.941 6.95000000e+02 
1173.402 7.08000000e+02 
1172.863 7.00000000e+02 
1172.324 7.20000000e+02 
1171.785 6.57000000e+02 
1171.246 7.24000000e+02 
1170.707 6.60000000e+02 
1170.168 7.00000000e+02 
1169.629 7.00000000e+02 
1169.090 7.04000000e+02 
1168.551 6.51000000e+02 
1168.012 6.68000000e+02 
1167.473 6.78000000e+02 
1166.934 6.54000000e+02 
1166.395 7.43000000e+02 
1165.855 6.89000000e+02 
1165.316 7.09000000e+02 
1164.777 6.73000000e+02 
1164.238 6.75000000e+02 
1163.699 6.77000000e+02 
1163.160 6.71000000e+02 
1162.621 6.91000000e+02 
1162.082 6.77000000e+02 
1161.543 7.48000000e+02 
1161.004 7.47000000e+02 
1160.465 6.90000000e+02 
1159.926 7.00000000e+02 
1159.387 7.10000000e+02 
1158.848 6.42000000e+02 
1158.309 7.02000000e+02 
1157.770 7.28000000e+02 
1157.230 7.13000000e+02 
1156.691 6.82000000e+02 
1156.152 6.98000000e+02 
1155.613 7.15000000e+02 
1155.074 7.29000000e+02 
1154.535 6.53000000e+02 
1153.996 6.68000000e+02 
1153.457 6.85000000e+02 
1152.918 6.88000000e+02 
1152.379 6.60000000e+02 
1151.840 6.77000000e+02 
1151.301 7.27000000e+02 
1150.762 7.02000000e+02 
1150.223 7.26000000e+02 
1149.684 7.04000000e+02 
1149.145 6.63000000e+02 
1148.605 6.78000000e+02 
1148.066 6.99000000e+02 
1147.527 6.58000000e+02 
1146.988 7.04000000e+02 
1146.449 6.80000000e+02 
1145.910 6.95000000e+02 
1145.371 6.79000000e+02 
1144.832 6.82000000e+02 
1144.293 7.07000000e+02 
1143.754 6.69000000e+02 
1143.215 6.88000000e+02 
1142.676 7.14000000e+02 
1142.137 6.71000000e+02 
1141.598 6.58000000e+02 
1141.059 6.87000000e+02 
1140.520 6.71000000e+02 
1139.980 6.52000000e+02 
1139.441 7.04000000e+02 
1138.902 6.36000000e+02 
1138.363 7.38000000e+02 
1137.824 7.05000000e+02 
1137.285 7.28000000e+02 
1136.746 6.84000000e+02 
1136.207 6.87000000e+02 
1135.668 6.60000000e+02 
1135.129 6.85000000e+02 
1134.590 6.78000000e+02 
1134.051 6.14000000e+02 
1133.512 6.81000000e+02 
1132.973 7.04000000e+02 
1132.434 6.98000000e+02 
1131.895 6.52000000e+02 
1131.355 6.65000000e+02 
1130.816 7.04000000e+02 
1130.277 6.76000000e+02 
1129.738 6.54000000e+02 
1129.199 6.84000000e+02 
1128.660 6.80000000e+02 
1128.121 6.43000000e+02 
1127.582 7.01000000e+02 
1127.043 6.84000000e+02 
1126.504 7.19000000e+02 
1125.965 6.98000000e+02 
1125.426 6.87000000e+02 
1124.887 6.53000000e+02 
1124.348 6.75000000e+02 
1123.809 6.90000000e+02 
1123.270 6.72000000e+02 
1122.730 6.74000000e+02 
1122.191 6.74000000e+02 
1121.652 6.70000000e+02 
1121.113 6.40000000e+02 
1120.574 6.73000000e+02 
1120.035 6.62000000e+02 
1119.496 6.99000000e+02 
1118.957 7.29000000e+02 
1118.418 6.93000000e+02 
1117.879 6.65000000e+02 
1117.340 6.29000000e+02 
1116.801 7.14000000e+02 
1116.262 6.77000000e+02 
1115.723 6.53000000e+02 
1115.184 6.68000000e+02 
1114.645 6.92000000e+02 
1114.105 6.91000000e+02 
1113.566 7.35000000e+02 
1113.027 6.52000000e+02 
1112.488 6.96000000e+02 
1111.949 6.67000000e+02 
1111.410 6.89000000e+02 
1110.871 6.76000000e+02 
1110.332 6.83000000e+02 
1109.793 6.57000000e+02 
1109.254 6.80000000e+02 
1108.715 6.68000000e+02 
1108.176 6.85000000e+02 
1107.637 6.82000000e+02 
1107.098 6.42000000e+02 
1106.559 7.02000000e+02 
1106.020 6.65000000e+02 
1105.480 6.79000000e+02 
1104.941 6.48000000e+02 
1104.402 6.98000000e+02 
1103.863 6.82000000e+02 
1103.324 6.86000000e+02 
1102.785 6.89000000e+02 
1102.246 6.93000000e+02 
1101.707 6.72000000e+02 
1101.168 7.04000000e+02 
1100.629 6.72000000e+02 
1100.090 6.22000000e+02 
1099.551 6.66000000e+02 
1099.012 7.43000000e+02 
1098.473 6.86000000e+02 
1097.934 6.27000000e+02 
1097.395 6.89000000e+02 
1096.855 6.75000000e+02 
1096.316 6.26000000e+02 
1095.777 6.44000000e+02 
1095.238 6.43000000e+02 
1094.699 6.63000000e+02 
1094.160 6.59000000e+02 
1093.621 6.97000000e+02 
1093.082 6.71000000e+02 
1092.543 6.97000000e+02 
1092.004 6.64000000e+02 
1091.465 7.02000000e+02 
1090.926 6.35000000e+02 
1090.387 6.56000000e+02 
1089.848 6.81000000e+02 
1089.309 6.62000000e+02 
1088.770 6.63000000e+02 
1088.230 6.34000000e+02 
1087.691 6.40000000e+02 
1087.152 6.43000000e+02 
1086.613 6.01000000e+02 
1086.074 6.23000000e+02 
1085.535 6.48000000e+02 
1084.996 6.05000000e+02 
1084.457 6.60000000e+02 
1083.918 5.92000000e+02 
1083.379 6.42000000e+02 
1082.840 6.21000000e+02 
1082.301 5.89000000e+02 
1081.762 6.40000000e+02 
1081.223 6.24000000e+02 
1080.684 6.17000000e+02 
1080.145 6.77000000e+02 
1079.605 6.43000000e+02 
1079.066 6.87000000e+02 
1078.527 7.49000000e+02 
1077.988 9.32000000e+02 
1077.449 1.08200000e+03 
1076.910 1.22700000e+03 
1076.371 1.04300000e+03 
1075.832 8.58000000e+02 
1075.293 6.63000000e+02 
1074.754 6.50000000e+02 
1074.215 5.82000000e+02 
1073.676 5.86000000e+02 
1073.137 5.66000000e+02 
1072.598 6.09000000e+02 
1072.059 5.87000000e+02 
1071.520 5.72000000e+02 
1070.980 6.11000000e+02 
1070.441 6.01000000e+02 
1069.902 5.68000000e+02 
1069.363 5.91000000e+02 
1068.824 5.78000000e+02 
1068.285 5.98000000e+02 
1067.746 5.94000000e+02 
1067.207 6.51000000e+02 
1066.668 5.59000000e+02 
1066.129 5.80000000e+02 
1065.590 5.72000000e+02 
1065.051 6.07000000e+02 
1064.512 5.97000000e+02 
1063.973 5.93000000e+02 
1063.434 5.78000000e+02 
1062.895 5.73000000e+02 
1062.355 5.98000000e+02 
1061.816 5.88000000e+02 
1061.277 5.68000000e+02 
1060.738 5.96000000e+02 
1060.199 6.08000000e+02 
1059.660 6.06000000e+02 
1059.121 5.87000000e+02 
1058.582 5.96000000e+02 
1058.043 6.04000000e+02 
1057.504 5.82000000e+02 
1056.965 6.32000000e+02 
1056.426 5.97000000e+02 
1055.887 5.75000000e+02 
1055.348 5.69000000e+02 
1054.809 5.66000000e+02 
1054.270 5.74000000e+02 
1053.730 5.99000000e+02 
1053.191 5.86000000e+02 
1052.652 5.68000000e+02 
1052.113 5.63000000e+02 
1051.574 5.94000000e+02 
1051.035 5.72000000e+02 
1050.496 6.22000000e+02 
1049.957 6.07000000e+02 
1049.418 5.96000000e+02 
1048.879 5.50000000e+02 
1048.340 5.93000000e+02 
1047.801 6.14000000e+02 
1047.262 5.88000000e+02 
1046.723 5.83000000e+02 
1046.184 5.97000000e+02 
1045.645 5.68000000e+02 
1045.105 5.77000000e+02 
1044.566 6.01000000e+02 
1044.027 5.77000000e+02 
1043.488 6.40000000e+02 
1042.949 5.92000000e+02 
1042.410 5.90000000e+02 
1041.871 5.89000000e+02 
1041.332 5.69000000e+02 
1040.793 5.98000000e+02 
1040.254 5.69000000e+02 
1039.715 5.46000000e+02 
1039.176 5.92000000e+02 
1038.637 5.65000000e+02 
1038.098 5.90000000e+02 
1037.559 5.64000000e+02 
1037.020 5.76000000e+02 
1036.480 5.35000000e+02 
1035.941 5.54000000e+02 
1035.402 6.12000000e+02 
1034.863 5.86000000e+02 
1034.324 5.83000000e+02 
1033.785 5.95000000e+02 
1033.246 6.15000000e+02 
1032.707 5.44000000e+02 
1032.168 5.84000000e+02 
1031.629 5.77000000e+02 
1031.090 5.98000000e+02 
1030.551 5.84000000e+02 
1030.012 5.77000000e+02 
1029.473 5.62000000e+02 
1028.934 6.04000000e+02 
1028.395 5.80000000e+02 
1027.855 6.27000000e+02 
1027.316 6.12000000e+02 
1026.777 6.32000000e+02 
1026.238 6.17000000e+02 
1025.699 6.03000000e+02 
1025.160 5.39000000e+02 
1024.621 6.24000000e+02 
1024.082 5.87000000e+02 
1023.543 5.59000000e+02 
1023.004 6.10000000e+02 
1022.465 5.87000000e+02 
1021.926 5.49000000e+02 
1021.387 5.57000000e+02 
1020.848 5.69000000e+02 
1020.309 6.33000000e+02 
1019.770 5.84000000e+02 
1019.230 5.51000000e+02 
1018.691 6.10000000e+02 
1018.152 5.39000000e+02 
1017.613 5.31000000e+02 
1017.074 5.53000000e+02 
1016.535 5.39000000e+02 
1015.996 5.80000000e+02 
1015.457 5.11000000e+02 
1014.918 5.43000000e+02 
1014.379 5.35000000e+02 
1013.840 5.97000000e+02 
1013.301 5.44000000e+02 
1012.762 5.38000000e+02 
1012.223 6.16000000e+02 
1011.684 5.81000000e+02 
1011.145 6.18000000e+02 
1010.605 5.97000000e+02 
1010.066 5.74000000e+02 
1009.527 5.90000000e+02 
1008.988 5.62000000e+02 
1008.449 5.59000000e+02 
1007.910 5.75000000e+02 
1007.371 5.79000000e+02 
1006.832 5.87000000e+02 
1006.293 5.58000000e+02 
1005.754 5.46000000e+02 
1005.215 5.50000000e+02 
1004.676 5.39000000e+02 
1004.137 5.18000000e+02 
1003.598 6.14000000e+02 
1003.059 5.83000000e+02 
1002.520 5.97000000e+02 
1001.980 5.88000000e+02 
1001.441 5.52000000e+02 
1000.902 5.89000000e+02 
1000.363 5.83000000e+02 
999.824  5.93000000e+02 
999.285  5.84000000e+02 
998.746  5.28000000e+02 
998.207  5.65000000e+02 
997.668  5.55000000e+02 
997.129  5.28000000e+02 
996.590  5.73000000e+02 
996.051  5.15000000e+02 
995.512  5.44000000e+02 
994.973  5.67000000e+02 
994.434  5.06000000e+02 
993.895  4.98000000e+02 
993.355  5.32000000e+02 
992.816  5.28000000e+02 
992.277  5.03000000e+02 
991.738  5.28000000e+02 
991.199  5.57000000e+02 
990.660  5.00000000e+02 
990.121  5.25000000e+02 
989.582  5.47000000e+02 
989.043  5.15000000e+02 
988.504  5.36000000e+02 
987.965  5.82000000e+02 
987.426  5.79000000e+02 
986.887  5.79000000e+02 
986.348  5.87000000e+02 
985.809  5.30000000e+02 
985.270  5.63000000e+02 
984.730  5.76000000e+02 
984.191  5.73000000e+02 
983.652  6.01000000e+02 
983.113  5.88000000e+02 
982.574  5.40000000e+02 
982.035  5.95000000e+02 
981.496  5.59000000e+02 
980.957  5.65000000e+02 
980.418  5.72000000e+02 
979.879  5.39000000e+02 
979.340  5.51000000e+02 
978.801  5.55000000e+02 
978.262  5.02000000e+02 
977.723  5.11000000e+02 
977.184  5.30000000e+02 
976.645  5.09000000e+02 
976.105  5.09000000e+02 
975.566  4.92000000e+02 
975.027  4.99000000e+02 
974.488  4.22000000e+02 
973.949  4.82000000e+02 
973.410  4.70000000e+02 
972.871  4.77000000e+02 
972.332  4.64000000e+02 
971.793  4.15000000e+02 
971.254  4.37000000e+02 
970.715  4.47000000e+02 
970.176  4.47000000e+02 
969.637  4.64000000e+02 
969.098  4.43000000e+02 
968.559  4.79000000e+02 
968.020  4.36000000e+02 
967.480  4.20000000e+02 
966.941  4.09000000e+02 
966.402  4.61000000e+02 
965.863  4.31000000e+02 
965.324  4.57000000e+02 
964.785  4.36000000e+02 
964.246  4.43000000e+02 
963.707  4.37000000e+02 
963.168  4.37000000e+02 
962.629  4.09000000e+02 
962.090  4.11000000e+02 
961.551  4.04000000e+02 
961.012  4.28000000e+02 
960.473  4.18000000e+02 
959.934  4.02000000e+02 
959.395  4.70000000e+02 
958.855  4.52000000e+02 
958.316  4.60000000e+02 
957.777  4.48000000e+02 
957.238  3.84000000e+02 
956.699  4.39000000e+02 
956.160  4.17000000e+02 
955.621  4.50000000e+02 
955.082  4.12000000e+02 
954.543  4.38000000e+02 
954.004  4.33000000e+02 
953.465  3.96000000e+02 
952.926  4.24000000e+02 
952.387  4.26000000e+02 
951.848  4.21000000e+02 
951.309  4.06000000e+02 
950.770  4.25000000e+02 
950.230  4.06000000e+02 
949.691  3.94000000e+02 
949.152  3.97000000e+02 
948.613  4.38000000e+02 
948.074  4.22000000e+02 
947.535  3.90000000e+02 
946.996  3.78000000e+02 
946.457  3.81000000e+02 
945.918  4.59000000e+02 
945.379  4.27000000e+02 
944.840  4.26000000e+02 
944.301  4.01000000e+02 
943.762  4.10000000e+02 
943.223  4.19000000e+02 
942.684  4.39000000e+02 
942.145  4.14000000e+02 
941.605  3.91000000e+02 
941.066  4.60000000e+02 
940.527  4.31000000e+02 
939.988  4.03000000e+02 
939.449  4.03000000e+02 
938.910  3.79000000e+02 
938.371  4.08000000e+02 
937.832  3.95000000e+02 
937.293  3.78000000e+02 
936.754  3.95000000e+02 
936.215  3.94000000e+02 
935.676  4.39000000e+02 
935.137  3.99000000e+02 
934.598  4.26000000e+02 
934.059  3.96000000e+02 
933.520  3.79000000e+02 
932.980  4.04000000e+02 
932.441  4.16000000e+02 
931.902  3.93000000e+02 
931.363  3.99000000e+02 
930.824  4.01000000e+02 
930.285  3.80000000e+02 
929.746  4.22000000e+02 
929.207  3.95000000e+02 
928.668  4.01000000e+02 
928.129  3.71000000e+02 
927.590  4.43000000e+02 
927.051  3.89000000e+02 
926.512  3.93000000e+02 
925.973  4.04000000e+02 
925.434  4.06000000e+02 
924.895  4.06000000e+02 
924.355  4.06000000e+02 
923.816  3.91000000e+02 
923.277  4.25000000e+02 
922.738  3.90000000e+02 
922.199  3.66000000e+02 
921.660  4.09000000e+02 
921.121  3.96000000e+02 
920.582  3.98000000e+02 
920.043  4.10000000e+02 
919.504  4.11000000e+02 
918.965  3.72000000e+02 
918.426  3.73000000e+02 
917.887  3.95000000e+02 
917.348  4.14000000e+02 
916.809  3.95000000e+02 
916.270  3.97000000e+02 
915.730  3.74000000e+02 
915.191  3.66000000e+02 
914.652  4.11000000e+02 
914.113  3.91000000e+02 
913.574  3.74000000e+02 
913.035  3.61000000e+02 
912.496  3.76000000e+02 
911.957  3.83000000e+02 
911.418  4.11000000e+02 
910.879  3.59000000e+02 
910.340  4.30000000e+02 
909.801  4.15000000e+02 
909.262  3.62000000e+02 
908.723  4.00000000e+02 
908.184  3.77000000e+02 
907.645  3.63000000e+02 
907.105  3.98000000e+02 
906.566  4.03000000e+02 
906.027  4.12000000e+02 
905.488  3.83000000e+02 
904.949  3.51000000e+02 
904.410  3.81000000e+02 
903.871  3.85000000e+02 
903.332  3.70000000e+02 
902.793  3.90000000e+02 
902.254  3.70000000e+02 
901.715  3.98000000e+02 
901.176  3.47000000e+02 
900.637  4.03000000e+02 
900.098  3.70000000e+02 
899.559  4.04000000e+02 
899.020  3.50000000e+02 
898.480  3.62000000e+02 
897.941  3.73000000e+02 
897.402  3.72000000e+02 
896.863  3.43000000e+02 
896.324  3.41000000e+02 
895.785  3.86000000e+02 
895.246  3.59000000e+02 
894.707  3.51000000e+02 
894.168  3.63000000e+02 
893.629  3.85000000e+02 
893.090  3.64000000e+02 
892.551  4.09000000e+02 
892.012  3.62000000e+02 
891.473  3.55000000e+02 
890.934  3.75000000e+02 
890.395  3.56000000e+02 
889.855  3.32000000e+02 
