EXPERIMENT FILE
Version = 2

[ Experiment Parameters ]
Experiment Description= <none> 
Number_of_Regions_in_Experiment= 1 

Original_File_name= c:\alexesca\data\detector\sur_s_1.xps 
Instrument= HP ESCA West
Date= 02-09-2006
Time=  13:58:47

[ Layer Parameters ]
Layer_Type= XPS

[ Region 1 Parameters ]
Region_Description = Nsurvey                            
BEcenter(eV) = 640.000000
BEwidth(eV) = 1300.000000
BEstep(eV) = 0.359375
Dwell_Time(sec) = 0.250000
N_o_scans = 10  
N_o_Channels = 3533  
Scan_mode = 0  (DITHERED)

[ L= 1 R= 1 ]
BEcenter= 640.000 
BEwidth= -1299.500
Excitation= 1486.600
Time_p_channel= 64.000  
Size= 3617
1289.750 2.32300000e+03 
1289.391 2.29900000e+03 
1289.031 2.41800000e+03 
1288.672 2.44000000e+03 
1288.312 2.26800000e+03 
1287.953 2.30200000e+03 
1287.594 2.43100000e+03 
1287.234 2.31400000e+03 
1286.875 2.37700000e+03 
1286.516 2.44900000e+03 
1286.156 2.35500000e+03 
1285.797 2.42800000e+03 
1285.438 2.43100000e+03 
1285.078 2.36300000e+03 
1284.719 2.40300000e+03 
1284.359 2.30900000e+03 
1284.000 2.27700000e+03 
1283.641 2.43500000e+03 
1283.281 2.44700000e+03 
1282.922 2.32200000e+03 
1282.562 2.32500000e+03 
1282.203 2.41100000e+03 
1281.844 2.43700000e+03 
1281.484 2.41400000e+03 
1281.125 2.40900000e+03 
1280.766 2.43700000e+03 
1280.406 2.45700000e+03 
1280.047 2.36300000e+03 
1279.688 2.43000000e+03 
1279.328 2.36000000e+03 
1278.969 2.38000000e+03 
1278.609 2.42800000e+03 
1278.250 2.37500000e+03 
1277.891 2.35100000e+03 
1277.531 2.37900000e+03 
1277.172 2.40800000e+03 
1276.812 2.32500000e+03 
1276.453 2.38900000e+03 
1276.094 2.43300000e+03 
1275.734 2.46500000e+03 
1275.375 2.37800000e+03 
1275.016 2.45300000e+03 
1274.656 2.34900000e+03 
1274.297 2.40100000e+03 
1273.938 2.48000000e+03 
1273.578 2.32500000e+03 
1273.219 2.46600000e+03 
1272.859 2.46600000e+03 
1272.500 2.46000000e+03 
1272.141 2.48700000e+03 
1271.781 2.48300000e+03 
1271.422 2.47600000e+03 
1271.062 2.39000000e+03 
1270.703 2.48700000e+03 
1270.344 2.41800000e+03 
1269.984 2.40200000e+03 
1269.625 2.50400000e+03 
1269.266 2.37300000e+03 
1268.906 2.43700000e+03 
1268.547 2.44800000e+03 
1268.188 2.43200000e+03 
1267.828 2.43100000e+03 
1267.469 2.59300000e+03 
1267.109 2.52700000e+03 
1266.750 2.45600000e+03 
1266.391 2.39600000e+03 
1266.031 2.43700000e+03 
1265.672 2.53500000e+03 
1265.312 2.52700000e+03 
1264.953 2.46800000e+03 
1264.594 2.53000000e+03 
1264.234 2.54300000e+03 
1263.875 2.45800000e+03 
1263.516 2.50700000e+03 
1263.156 2.47900000e+03 
1262.797 2.48900000e+03 
1262.438 2.51900000e+03 
1262.078 2.41100000e+03 
1261.719 2.42600000e+03 
1261.359 2.46200000e+03 
1261.000 2.43100000e+03 
1260.641 2.55300000e+03 
1260.281 2.46600000e+03 
1259.922 2.44700000e+03 
1259.562 2.55500000e+03 
1259.203 2.50000000e+03 
1258.844 2.45500000e+03 
1258.484 2.49600000e+03 
1258.125 2.57500000e+03 
1257.766 2.52200000e+03 
1257.406 2.39500000e+03 
1257.047 2.47500000e+03 
1256.688 2.53400000e+03 
1256.328 2.49300000e+03 
1255.969 2.47300000e+03 
1255.609 2.52600000e+03 
1255.250 2.59400000e+03 
1254.891 2.58900000e+03 
1254.531 2.48000000e+03 
1254.172 2.60200000e+03 
1253.812 2.56700000e+03 
1253.453 2.56000000e+03 
1253.094 2.55300000e+03 
1252.734 2.59500000e+03 
1252.375 2.49100000e+03 
1252.016 2.48600000e+03 
1251.656 2.56200000e+03 
1251.297 2.60200000e+03 
1250.938 2.63600000e+03 
1250.578 2.62300000e+03 
1250.219 2.53400000e+03 
1249.859 2.63100000e+03 
1249.500 2.60000000e+03 
1249.141 2.57800000e+03 
1248.781 2.65200000e+03 
1248.422 2.50100000e+03 
1248.062 2.67500000e+03 
1247.703 2.58700000e+03 
1247.344 2.50700000e+03 
1246.984 2.61100000e+03 
1246.625 2.52400000e+03 
1246.266 2.54800000e+03 
1245.906 2.59700000e+03 
1245.547 2.56400000e+03 
1245.188 2.61100000e+03 
1244.828 2.53700000e+03 
1244.469 2.65400000e+03 
1244.109 2.58400000e+03 
1243.750 2.61400000e+03 
1243.391 2.63000000e+03 
1243.031 2.61600000e+03 
1242.672 2.55900000e+03 
1242.312 2.59100000e+03 
1241.953 2.62700000e+03 
1241.594 2.52300000e+03 
1241.234 2.60000000e+03 
1240.875 2.59100000e+03 
1240.516 2.54800000e+03 
1240.156 2.56800000e+03 
1239.797 2.57500000e+03 
1239.438 2.59200000e+03 
1239.078 2.68400000e+03 
1238.719 2.61500000e+03 
1238.359 2.67200000e+03 
1238.000 2.60400000e+03 
1237.641 2.63100000e+03 
1237.281 2.64300000e+03 
1236.922 2.62600000e+03 
1236.562 2.62800000e+03 
1236.203 2.62800000e+03 
1235.844 2.58000000e+03 
1235.484 2.56600000e+03 
1235.125 2.66700000e+03 
1234.766 2.65100000e+03 
1234.406 2.59300000e+03 
1234.047 2.67800000e+03 
1233.688 2.65600000e+03 
1233.328 2.69600000e+03 
1232.969 2.62800000e+03 
1232.609 2.66400000e+03 
1232.250 2.62500000e+03 
1231.891 2.74500000e+03 
1231.531 2.64000000e+03 
1231.172 2.63000000e+03 
1230.812 2.60300000e+03 
1230.453 2.56900000e+03 
1230.094 2.65100000e+03 
1229.734 2.70700000e+03 
1229.375 2.69200000e+03 
1229.016 2.65200000e+03 
1228.656 2.48900000e+03 
1228.297 2.49500000e+03 
1227.938 2.62600000e+03 
1227.578 2.59300000e+03 
1227.219 2.61300000e+03 
1226.859 2.65000000e+03 
1226.500 2.56500000e+03 
1226.141 2.58900000e+03 
1225.781 2.56800000e+03 
1225.422 2.62900000e+03 
1225.062 2.57700000e+03 
1224.703 2.61700000e+03 
1224.344 2.53100000e+03 
1223.984 2.57100000e+03 
1223.625 2.50900000e+03 
1223.266 2.51200000e+03 
1222.906 2.54600000e+03 
1222.547 2.44400000e+03 
1222.188 2.52700000e+03 
1221.828 2.42900000e+03 
1221.469 2.51000000e+03 
1221.109 2.56400000e+03 
1220.750 2.39200000e+03 
1220.391 2.45200000e+03 
1220.031 2.50800000e+03 
1219.672 2.45300000e+03 
1219.312 2.41800000e+03 
1218.953 2.34800000e+03 
1218.594 2.41200000e+03 
1218.234 2.50300000e+03 
1217.875 2.40900000e+03 
1217.516 2.35400000e+03 
1217.156 2.38400000e+03 
1216.797 2.42900000e+03 
1216.438 2.49400000e+03 
1216.078 2.35300000e+03 
1215.719 2.40600000e+03 
1215.359 2.45500000e+03 
1215.000 2.32100000e+03 
1214.641 2.42600000e+03 
1214.281 2.39100000e+03 
1213.922 2.27000000e+03 
1213.562 2.38800000e+03 
1213.203 2.39500000e+03 
1212.844 2.42400000e+03 
1212.484 2.35700000e+03 
1212.125 2.37700000e+03 
1211.766 2.43400000e+03 
1211.406 2.31700000e+03 
1211.047 2.30800000e+03 
1210.688 2.38300000e+03 
1210.328 2.46400000e+03 
1209.969 2.34000000e+03 
1209.609 2.33200000e+03 
1209.250 2.33300000e+03 
1208.891 2.33400000e+03 
1208.531 2.37700000e+03 
1208.172 2.34800000e+03 
1207.812 2.32000000e+03 
1207.453 2.37600000e+03 
1207.094 2.35600000e+03 
1206.734 2.51900000e+03 
1206.375 2.33500000e+03 
1206.016 2.27000000e+03 
1205.656 2.48100000e+03 
1205.297 2.31600000e+03 
1204.938 2.27800000e+03 
1204.578 2.32500000e+03 
1204.219 2.35800000e+03 
1203.859 2.37800000e+03 
1203.500 2.40400000e+03 
1203.141 2.44300000e+03 
1202.781 2.38500000e+03 
1202.422 2.39600000e+03 
1202.062 2.43100000e+03 
1201.703 2.40100000e+03 
1201.344 2.34100000e+03 
1200.984 2.34700000e+03 
1200.625 2.38800000e+03 
1200.266 2.38000000e+03 
1199.906 2.38700000e+03 
1199.547 2.40400000e+03 
1199.188 2.43100000e+03 
1198.828 2.48400000e+03 
1198.469 2.40800000e+03 
1198.109 2.40800000e+03 
1197.750 2.39400000e+03 
1197.391 2.37000000e+03 
1197.031 2.36200000e+03 
1196.672 2.38400000e+03 
1196.312 2.46500000e+03 
1195.953 2.40700000e+03 
1195.594 2.42000000e+03 
1195.234 2.36300000e+03 
1194.875 2.25700000e+03 
1194.516 2.32200000e+03 
1194.156 2.37100000e+03 
1193.797 2.35100000e+03 
1193.438 2.34500000e+03 
1193.078 2.31500000e+03 
1192.719 2.34100000e+03 
1192.359 2.31100000e+03 
1192.000 2.32800000e+03 
1191.641 2.35700000e+03 
1191.281 2.40500000e+03 
1190.922 2.32400000e+03 
1190.562 2.31200000e+03 
1190.203 2.31400000e+03 
1189.844 2.34800000e+03 
1189.484 2.40300000e+03 
1189.125 2.35300000e+03 
1188.766 2.35200000e+03 
1188.406 2.34100000e+03 
1188.047 2.32500000e+03 
1187.688 2.36200000e+03 
1187.328 2.34900000e+03 
1186.969 2.37100000e+03 
1186.609 2.27900000e+03 
1186.250 2.39300000e+03 
1185.891 2.33300000e+03 
1185.531 2.30600000e+03 
1185.172 2.32100000e+03 
1184.812 2.34700000e+03 
1184.453 2.36400000e+03 
1184.094 2.35400000e+03 
1183.734 2.32800000e+03 
1183.375 2.28800000e+03 
1183.016 2.38500000e+03 
1182.656 2.41800000e+03 
1182.297 2.38200000e+03 
1181.938 2.28400000e+03 
1181.578 2.42700000e+03 
1181.219 2.38100000e+03 
1180.859 2.41900000e+03 
1180.500 2.43400000e+03 
1180.141 2.35900000e+03 
1179.781 2.35800000e+03 
1179.422 2.30300000e+03 
1179.062 2.34800000e+03 
1178.703 2.35600000e+03 
1178.344 2.32900000e+03 
1177.984 2.49300000e+03 
1177.625 2.36200000e+03 
1177.266 2.33800000e+03 
1176.906 2.31000000e+03 
1176.547 2.26600000e+03 
1176.188 2.38900000e+03 
1175.828 2.38300000e+03 
1175.469 2.39400000e+03 
1175.109 2.35700000e+03 
1174.750 2.30800000e+03 
1174.391 2.35800000e+03 
1174.031 2.35500000e+03 
1173.672 2.29900000e+03 
1173.312 2.26800000e+03 
1172.953 2.28200000e+03 
1172.594 2.34700000e+03 
1172.234 2.30500000e+03 
1171.875 2.31100000e+03 
1171.516 2.31000000e+03 
1171.156 2.36600000e+03 
1170.797 2.43700000e+03 
1170.438 2.46000000e+03 
1170.078 2.35900000e+03 
1169.719 2.39500000e+03 
1169.359 2.36200000e+03 
1169.000 2.33200000e+03 
1168.641 2.37500000e+03 
1168.281 2.37700000e+03 
1167.922 2.37800000e+03 
1167.562 2.31700000e+03 
1167.203 2.34500000e+03 
1166.844 2.34800000e+03 
1166.484 2.32900000e+03 
1166.125 2.30000000e+03 
1165.766 2.36100000e+03 
1165.406 2.33600000e+03 
1165.047 2.29800000e+03 
1164.688 2.25800000e+03 
1164.328 2.40400000e+03 
1163.969 2.39600000e+03 
1163.609 2.38300000e+03 
1163.250 2.36600000e+03 
1162.891 2.28000000e+03 
1162.531 2.32000000e+03 
1162.172 2.36400000e+03 
1161.812 2.37100000e+03 
1161.453 2.37200000e+03 
1161.094 2.41400000e+03 
1160.734 2.41400000e+03 
1160.375 2.41400000e+03 
1160.016 2.33500000e+03 
1159.656 2.40100000e+03 
1159.297 2.31700000e+03 
1158.938 2.27600000e+03 
1158.578 2.43500000e+03 
1158.219 2.35000000e+03 
1157.859 2.31400000e+03 
1157.500 2.32900000e+03 
1157.141 2.32300000e+03 
1156.781 2.42500000e+03 
1156.422 2.29000000e+03 
1156.062 2.27400000e+03 
1155.703 2.36300000e+03 
1155.344 2.38800000e+03 
1154.984 2.36400000e+03 
1154.625 2.34200000e+03 
1154.266 2.36800000e+03 
1153.906 2.35100000e+03 
1153.547 2.40600000e+03 
1153.188 2.40000000e+03 
1152.828 2.34600000e+03 
1152.469 2.36100000e+03 
1152.109 2.41400000e+03 
1151.750 2.36800000e+03 
1151.391 2.31800000e+03 
1151.031 2.30400000e+03 
1150.672 2.30900000e+03 
1150.312 2.38200000e+03 
1149.953 2.31000000e+03 
1149.594 2.36500000e+03 
1149.234 2.38900000e+03 
1148.875 2.43200000e+03 
1148.516 2.32600000e+03 
1148.156 2.39000000e+03 
1147.797 2.31200000e+03 
1147.438 2.45000000e+03 
1147.078 2.37300000e+03 
1146.719 2.39700000e+03 
1146.359 2.32200000e+03 
1146.000 2.25000000e+03 
1145.641 2.30100000e+03 
1145.281 2.28900000e+03 
1144.922 2.33000000e+03 
1144.562 2.34500000e+03 
1144.203 2.34900000e+03 
1143.844 2.31700000e+03 
1143.484 2.35200000e+03 
1143.125 2.48700000e+03 
1142.766 2.37400000e+03 
1142.406 2.34600000e+03 
1142.047 2.39100000e+03 
1141.688 2.36500000e+03 
1141.328 2.30100000e+03 
1140.969 2.28000000e+03 
1140.609 2.32300000e+03 
1140.250 2.38900000e+03 
1139.891 2.39100000e+03 
1139.531 2.32000000e+03 
1139.172 2.37300000e+03 
1138.812 2.32700000e+03 
1138.453 2.37300000e+03 
1138.094 2.26600000e+03 
1137.734 2.25200000e+03 
1137.375 2.36800000e+03 
1137.016 2.33900000e+03 
1136.656 2.30000000e+03 
1136.297 2.31100000e+03 
1135.938 2.35600000e+03 
1135.578 2.31100000e+03 
1135.219 2.32800000e+03 
1134.859 2.34800000e+03 
1134.500 2.34700000e+03 
1134.141 2.40600000e+03 
1133.781 2.39600000e+03 
1133.422 2.29200000e+03 
1133.062 2.26000000e+03 
1132.703 2.39000000e+03 
1132.344 2.33900000e+03 
1131.984 2.37800000e+03 
1131.625 2.27800000e+03 
1131.266 2.32500000e+03 
1130.906 2.29800000e+03 
1130.547 2.32500000e+03 
1130.188 2.37300000e+03 
1129.828 2.34500000e+03 
1129.469 2.36700000e+03 
1129.109 2.33800000e+03 
1128.750 2.36700000e+03 
1128.391 2.31200000e+03 
1128.031 2.29000000e+03 
1127.672 2.26800000e+03 
1127.312 2.25000000e+03 
1126.953 2.37800000e+03 
1126.594 2.35100000e+03 
1126.234 2.29800000e+03 
1125.875 2.28400000e+03 
1125.516 2.32800000e+03 
1125.156 2.27000000e+03 
1124.797 2.37700000e+03 
1124.438 2.38900000e+03 
1124.078 2.40800000e+03 
1123.719 2.29900000e+03 
1123.359 2.21700000e+03 
1123.000 2.37000000e+03 
1122.641 2.34900000e+03 
1122.281 2.33300000e+03 
1121.922 2.32100000e+03 
1121.562 2.32500000e+03 
1121.203 2.33400000e+03 
1120.844 2.41300000e+03 
1120.484 2.25600000e+03 
1120.125 2.34600000e+03 
1119.766 2.34700000e+03 
1119.406 2.30300000e+03 
1119.047 2.38700000e+03 
1118.688 2.28400000e+03 
1118.328 2.37500000e+03 
1117.969 2.30500000e+03 
1117.609 2.39900000e+03 
1117.250 2.30800000e+03 
1116.891 2.24500000e+03 
1116.531 2.38100000e+03 
1116.172 2.27700000e+03 
1115.812 2.27900000e+03 
1115.453 2.30700000e+03 
1115.094 2.32800000e+03 
1114.734 2.34500000e+03 
1114.375 2.33200000e+03 
1114.016 2.34100000e+03 
1113.656 2.27100000e+03 
1113.297 2.43600000e+03 
1112.938 2.34700000e+03 
1112.578 2.30700000e+03 
1112.219 2.37300000e+03 
1111.859 2.28500000e+03 
1111.500 2.36700000e+03 
1111.141 2.32100000e+03 
1110.781 2.23800000e+03 
1110.422 2.39400000e+03 
1110.062 2.32100000e+03 
1109.703 2.33100000e+03 
1109.344 2.29600000e+03 
1108.984 2.30500000e+03 
1108.625 2.35200000e+03 
1108.266 2.29300000e+03 
1107.906 2.27500000e+03 
1107.547 2.33700000e+03 
1107.188 2.31400000e+03 
1106.828 2.33600000e+03 
1106.469 2.30300000e+03 
1106.109 2.32000000e+03 
1105.750 2.28500000e+03 
1105.391 2.31000000e+03 
1105.031 2.27700000e+03 
1104.672 2.40300000e+03 
1104.312 2.33100000e+03 
1103.953 2.25100000e+03 
1103.594 2.38600000e+03 
1103.234 2.34700000e+03 
1102.875 2.32000000e+03 
1102.516 2.29000000e+03 
1102.156 2.38500000e+03 
1101.797 2.35900000e+03 
1101.438 2.37800000e+03 
1101.078 2.28700000e+03 
1100.719 2.26800000e+03 
1100.359 2.34500000e+03 
1100.000 2.29300000e+03 
1099.641 2.39200000e+03 
1099.281 2.29700000e+03 
1098.922 2.31400000e+03 
1098.562 2.38400000e+03 
1098.203 2.33800000e+03 
1097.844 2.40300000e+03 
1097.484 2.29000000e+03 
1097.125 2.38300000e+03 
1096.766 2.35800000e+03 
1096.406 2.33800000e+03 
1096.047 2.35600000e+03 
1095.688 2.31200000e+03 
1095.328 2.32900000e+03 
1094.969 2.28000000e+03 
1094.609 2.33800000e+03 
1094.250 2.31100000e+03 
1093.891 2.24100000e+03 
1093.531 2.28200000e+03 
1093.172 2.26100000e+03 
1092.812 2.38100000e+03 
1092.453 2.30700000e+03 
1092.094 2.25200000e+03 
1091.734 2.20900000e+03 
1091.375 2.28800000e+03 
1091.016 2.27700000e+03 
1090.656 2.31800000e+03 
1090.297 2.21300000e+03 
1089.938 2.20100000e+03 
1089.578 2.24700000e+03 
1089.219 2.17000000e+03 
1088.859 2.23200000e+03 
1088.500 2.29100000e+03 
1088.141 2.29000000e+03 
1087.781 2.19600000e+03 
1087.422 2.30500000e+03 
1087.062 2.24900000e+03 
1086.703 2.20300000e+03 
1086.344 2.23800000e+03 
1085.984 2.34300000e+03 
1085.625 2.21800000e+03 
1085.266 2.13400000e+03 
1084.906 2.28900000e+03 
1084.547 2.12800000e+03 
1084.188 2.15300000e+03 
1083.828 2.22200000e+03 
1083.469 2.15700000e+03 
1083.109 2.13700000e+03 
1082.750 2.16100000e+03 
1082.391 2.13300000e+03 
1082.031 2.08400000e+03 
1081.672 2.15700000e+03 
1081.312 2.09600000e+03 
1080.953 2.02700000e+03 
1080.594 2.20600000e+03 
1080.234 2.07900000e+03 
1079.875 2.16800000e+03 
1079.516 2.20400000e+03 
1079.156 2.15700000e+03 
1078.797 2.23900000e+03 
1078.438 2.33200000e+03 
1078.078 2.47000000e+03 
1077.719 2.55400000e+03 
1077.359 3.03600000e+03 
1077.000 3.27100000e+03 
1076.641 3.63400000e+03 
1076.281 4.14500000e+03 
1075.922 4.00200000e+03 
1075.562 3.76000000e+03 
1075.203 3.10600000e+03 
1074.844 2.59200000e+03 
1074.484 2.29600000e+03 
1074.125 2.23500000e+03 
1073.766 2.09100000e+03 
1073.406 2.09000000e+03 
1073.047 2.09000000e+03 
1072.688 2.01400000e+03 
1072.328 2.02500000e+03 
1071.969 2.10500000e+03 
1071.609 2.12600000e+03 
1071.250 1.98100000e+03 
1070.891 2.14200000e+03 
1070.531 2.09200000e+03 
1070.172 2.00700000e+03 
1069.812 2.16900000e+03 
1069.453 1.98800000e+03 
1069.094 2.04200000e+03 
1068.734 2.04000000e+03 
1068.375 2.05400000e+03 
1068.016 2.10800000e+03 
1067.656 2.06700000e+03 
1067.297 1.96400000e+03 
1066.938 2.03000000e+03 
1066.578 2.07600000e+03 
1066.219 2.01500000e+03 
1065.859 2.11300000e+03 
1065.500 2.03700000e+03 
1065.141 2.05100000e+03 
1064.781 2.01500000e+03 
1064.422 2.11400000e+03 
1064.062 2.10900000e+03 
1063.703 2.09300000e+03 
1063.344 2.05100000e+03 
1062.984 2.04300000e+03 
1062.625 2.07300000e+03 
1062.266 2.00900000e+03 
1061.906 2.12200000e+03 
1061.547 2.02500000e+03 
1061.188 1.92600000e+03 
1060.828 2.07200000e+03 
1060.469 2.04000000e+03 
1060.109 2.15700000e+03 
1059.750 2.03100000e+03 
1059.391 2.01200000e+03 
1059.031 2.07300000e+03 
1058.672 2.03400000e+03 
1058.312 2.08900000e+03 
1057.953 2.01500000e+03 
1057.594 2.05200000e+03 
1057.234 2.01600000e+03 
1056.875 2.08900000e+03 
1056.516 2.03600000e+03 
1056.156 1.99800000e+03 
1055.797 1.98400000e+03 
1055.438 2.10900000e+03 
1055.078 2.02500000e+03 
1054.719 2.15400000e+03 
1054.359 1.92400000e+03 
1054.000 2.03900000e+03 
1053.641 2.02100000e+03 
1053.281 1.96900000e+03 
1052.922 2.03500000e+03 
1052.562 2.07600000e+03 
1052.203 2.04600000e+03 
1051.844 2.00800000e+03 
1051.484 2.07600000e+03 
1051.125 2.13800000e+03 
1050.766 2.02900000e+03 
1050.406 2.12300000e+03 
1050.047 2.10100000e+03 
1049.688 2.08100000e+03 
1049.328 2.16700000e+03 
1048.969 2.11200000e+03 
1048.609 2.03600000e+03 
1048.250 2.06200000e+03 
1047.891 2.02700000e+03 
1047.531 2.03100000e+03 
1047.172 2.04500000e+03 
1046.812 2.11800000e+03 
1046.453 2.05700000e+03 
1046.094 2.07100000e+03 
1045.734 2.08000000e+03 
1045.375 2.02800000e+03 
1045.016 1.98700000e+03 
1044.656 1.98400000e+03 
1044.297 2.08200000e+03 
1043.938 2.11000000e+03 
1043.578 2.02600000e+03 
1043.219 2.08400000e+03 
1042.859 2.04200000e+03 
1042.500 2.04300000e+03 
1042.141 2.11300000e+03 
1041.781 1.97700000e+03 
1041.422 2.04400000e+03 
1041.062 1.99200000e+03 
1040.703 2.00600000e+03 
1040.344 1.98600000e+03 
1039.984 2.05200000e+03 
1039.625 2.06900000e+03 
1039.266 2.05100000e+03 
1038.906 2.09500000e+03 
1038.547 2.04700000e+03 
1038.188 2.09700000e+03 
1037.828 2.11200000e+03 
1037.469 2.02500000e+03 
1037.109 1.98800000e+03 
1036.750 2.09000000e+03 
1036.391 2.02900000e+03 
1036.031 2.03200000e+03 
1035.672 2.01300000e+03 
1035.312 2.04800000e+03 
1034.953 2.02300000e+03 
1034.594 2.01000000e+03 
1034.234 2.02100000e+03 
1033.875 2.06800000e+03 
1033.516 2.02300000e+03 
1033.156 1.99600000e+03 
1032.797 2.04200000e+03 
1032.438 1.98400000e+03 
1032.078 2.01400000e+03 
1031.719 2.00900000e+03 
1031.359 2.05300000e+03 
1031.000 2.01100000e+03 
1030.641 2.00600000e+03 
1030.281 2.04800000e+03 
1029.922 2.08800000e+03 
1029.562 2.00800000e+03 
1029.203 2.04800000e+03 
1028.844 2.09500000e+03 
1028.484 2.06000000e+03 
1028.125 2.08500000e+03 
1027.766 2.13000000e+03 
1027.406 2.14700000e+03 
1027.047 2.25700000e+03 
1026.688 2.14600000e+03 
1026.328 2.13500000e+03 
1025.969 2.22500000e+03 
1025.609 2.14600000e+03 
1025.250 2.01600000e+03 
1024.891 2.07100000e+03 
1024.531 2.07900000e+03 
1024.172 2.01600000e+03 
1023.812 2.13600000e+03 
1023.453 2.04500000e+03 
1023.094 1.96500000e+03 
